%OpenBCI Raw EEG Data
%
%Sample Rate = 250.0 Hz
%First Column = SampleIndex
%Other Columns = EEG data in microvolts followed by Accel Data (in G) interleaved with Aux Data
0, 0.00, 0.00, 0.00, 0.00, 0.00, 0.00, 0.00, 0.00, -0.73, 0.16, -0.62
1, 0.00, 260.31, 0.00, 0.00, 0.00, 0.00, 6039.60, 0.00, 0.00, 0.00, 0.00
2, 0.00, 257.63, 0.00, 0.00, 0.00, 0.00, 6041.65, 0.00, 0.00, 0.00, 0.00
3, 0.00, 245.51, 0.00, 0.00, 0.00, 0.00, 6040.13, 0.00, 0.00, 0.00, 0.00
4, 0.00, 246.52, 0.00, 0.00, 0.00, 0.00, 6041.99, 0.00, 0.00, 0.00, 0.00
5, 0.00, 251.23, 0.00, 0.00, 0.00, 0.00, 6042.10, 0.00, 0.00, 0.00, 0.00
6, 0.00, 255.95, 0.00, 0.00, 0.00, 0.00, 6042.88, 0.00, 0.00, 0.00, 0.00
7, 0.00, 253.54, 0.00, 0.00, 0.00, 0.00, 6043.82, 0.00, -0.80, 0.06, -0.56
8, 0.00, 254.23, 0.00, 0.00, 0.00, 0.00, 6039.33, 0.00, 0.00, 0.00, 0.00
9, 0.00, 256.55, 0.00, 0.00, 0.00, 0.00, 6033.16, 0.00, 0.00, 0.00, 0.00
10, 0.00, 250.14, 0.00, 0.00, 0.00, 0.00, 6038.57, 0.00, 0.00, 0.00, 0.00
11, 0.00, 241.33, 0.00, 0.00, 0.00, 0.00, 6044.90, 0.00, 0.00, 0.00, 0.00
12, 0.00, 244.57, 0.00, 0.00, 0.00, 0.00, 6042.37, 0.00, 0.00, 0.00, 0.00
13, 0.00, 262.28, 0.00, 0.00, 0.00, 0.00, 6044.98, 0.00, 0.00, 0.00, 0.00
14, 0.00, 255.08, 0.00, 0.00, 0.00, 0.00, 6047.82, 0.00, 0.00, 0.00, 0.00
15, 0.00, 246.63, 0.00, 0.00, 0.00, 0.00, 6047.93, 0.00, 0.00, 0.00, 0.00
16, 0.00, 241.04, 0.00, 0.00, 0.00, 0.00, 6045.32, 0.00, 0.00, 0.00, 0.00
17, 0.00, 245.96, 0.00, 0.00, 0.00, 0.00, 6043.75, 0.00, -0.80, 0.06, -0.56
18, 0.00, 245.78, 0.00, 0.00, 0.00, 0.00, 6042.84, 0.00, 0.00, 0.00, 0.00
19, 0.00, 250.03, 0.00, 0.00, 0.00, 0.00, 6047.29, 0.00, 0.00, 0.00, 0.00
20, 0.00, 245.98, 0.00, 0.00, 0.00, 0.00, 6051.96, 0.00, 0.00, 0.00, 0.00
21, 0.00, 250.76, 0.00, 0.00, 0.00, 0.00, 6049.68, 0.00, 0.00, 0.00, 0.00
22, 0.00, 244.89, 0.00, 0.00, 0.00, 0.00, 6052.07, 0.00, 0.00, 0.00, 0.00
23, 0.00, 245.62, 0.00, 0.00, 0.00, 0.00, 6057.30, 0.00, 0.00, 0.00, 0.00
24, 0.00, 241.38, 0.00, 0.00, 0.00, 0.00, 6061.59, 0.00, 0.00, 0.00, 0.00
25, 0.00, 241.67, 0.00, 0.00, 0.00, 0.00, 6056.27, 0.00, 0.00, 0.00, 0.00
26, 0.00, 235.74, 0.00, 0.00, 0.00, 0.00, 6049.54, 0.00, 0.00, 0.00, 0.00
27, 0.00, 239.48, 0.00, 0.00, 0.00, 0.00, 6048.05, 0.00, -0.80, 0.06, -0.55
28, 0.00, 229.89, 0.00, 0.00, 0.00, 0.00, 6049.97, 0.00, 0.00, 0.00, 0.00
29, 0.00, 240.73, 0.00, 0.00, 0.00, 0.00, 6050.53, 0.00, 0.00, 0.00, 0.00
30, 0.00, 244.39, 0.00, 0.00, 0.00, 0.00, 6047.87, 0.00, 0.00, 0.00, 0.00
31, 0.00, 234.20, 0.00, 0.00, 0.00, 0.00, 6049.59, 0.00, 0.00, 0.00, 0.00
32, 0.00, 233.58, 0.00, 0.00, 0.00, 0.00, 6055.29, 0.00, 0.00, 0.00, 0.00
33, 0.00, 243.34, 0.00, 0.00, 0.00, 0.00, 6055.53, 0.00, 0.00, 0.00, 0.00
34, 0.00, 245.85, 0.00, 0.00, 0.00, 0.00, 6057.52, 0.00, 0.00, 0.00, 0.00
35, 0.00, 235.50, 0.00, 0.00, 0.00, 0.00, 6055.62, 0.00, 0.00, 0.00, 0.00
36, 0.00, 227.83, 0.00, 0.00, 0.00, 0.00, 6052.99, 0.00, -0.80, 0.06, -0.55
37, 0.00, 232.06, 0.00, 0.00, 0.00, 0.00, 6051.20, 0.00, 0.00, 0.00, 0.00
38, 0.00, 241.26, 0.00, 0.00, 0.00, 0.00, 6052.87, 0.00, 0.00, 0.00, 0.00
39, 0.00, 234.22, 0.00, 0.00, 0.00, 0.00, 6055.11, 0.00, 0.00, 0.00, 0.00
40, 0.00, 237.33, 0.00, 0.00, 0.00, 0.00, 6063.54, 0.00, 0.00, 0.00, 0.00
41, 0.00, 231.05, 0.00, 0.00, 0.00, 0.00, 6065.32, 0.00, 0.00, 0.00, 0.00
42, 0.00, 234.09, 0.00, 0.00, 0.00, 0.00, 6061.52, 0.00, 0.00, 0.00, 0.00
43, 0.00, 240.53, 0.00, 0.00, 0.00, 0.00, 6066.00, 0.00, 0.00, 0.00, 0.00
44, 0.00, 235.01, 0.00, 0.00, 0.00, 0.00, 6062.93, 0.00, 0.00, 0.00, 0.00
45, 0.00, 227.18, 0.00, 0.00, 0.00, 0.00, 6054.17, 0.00, 0.00, 0.00, 0.00
46, 0.00, 228.99, 0.00, 0.00, 0.00, 0.00, 6050.19, 0.00, -0.81, 0.05, -0.56
47, 0.00, 224.46, 0.00, 0.00, 0.00, 0.00, 6051.98, 0.00, 0.00, 0.00, 0.00
48, 0.00, 219.96, 0.00, 0.00, 0.00, 0.00, 6058.64, 0.00, 0.00, 0.00, 0.00
49, 0.00, 215.60, 0.00, 0.00, 0.00, 0.00, 6064.10, 0.00, 0.00, 0.00, 0.00
50, 0.00, 229.46, 0.00, 0.00, 0.00, 0.00, 6063.20, 0.00, 0.00, 0.00, 0.00
51, 0.00, 229.28, 0.00, 0.00, 0.00, 0.00, 6058.02, 0.00, 0.00, 0.00, 0.00
52, 0.00, 223.05, 0.00, 0.00, 0.00, 0.00, 6064.16, 0.00, 0.00, 0.00, 0.00
53, 0.00, 222.38, 0.00, 0.00, 0.00, 0.00, 6066.91, 0.00, 0.00, 0.00, 0.00
54, 0.00, 233.80, 0.00, 0.00, 0.00, 0.00, 6067.00, 0.00, 0.00, 0.00, 0.00
55, 0.00, 237.69, 0.00, 0.00, 0.00, 0.00, 6071.09, 0.00, 0.00, 0.00, 0.00
56, 0.00, 227.38, 0.00, 0.00, 0.00, 0.00, 6070.89, 0.00, -0.82, 0.06, -0.55
57, 0.00, 220.84, 0.00, 0.00, 0.00, 0.00, 6066.67, 0.00, 0.00, 0.00, 0.00
58, 0.00, 223.14, 0.00, 0.00, 0.00, 0.00, 6065.66, 0.00, 0.00, 0.00, 0.00
59, 0.00, 226.11, 0.00, 0.00, 0.00, 0.00, 6060.92, 0.00, 0.00, 0.00, 0.00
60, 0.00, 218.67, 0.00, 0.00, 0.00, 0.00, 6062.53, 0.00, 0.00, 0.00, 0.00
61, 0.00, 221.15, 0.00, 0.00, 0.00, 0.00, 6078.85, 0.00, 0.00, 0.00, 0.00
62, 0.00, 220.66, 0.00, 0.00, 0.00, 0.00, 6080.41, 0.00, 0.00, 0.00, 0.00
63, 0.00, 220.75, 0.00, 0.00, 0.00, 0.00, 6068.86, 0.00, 0.00, 0.00, 0.00
64, 0.00, 216.66, 0.00, 0.00, 0.00, 0.00, 6067.11, 0.00, 0.00, 0.00, 0.00
65, 0.00, 215.16, 0.00, 0.00, 0.00, 0.00, 6068.79, 0.00, -0.82, 0.06, -0.54
66, 0.00, 219.23, 0.00, 0.00, 0.00, 0.00, 6071.94, 0.00, 0.00, 0.00, 0.00
67, 0.00, 224.95, 0.00, 0.00, 0.00, 0.00, 6073.55, 0.00, 0.00, 0.00, 0.00
68, 0.00, 215.34, 0.00, 0.00, 0.00, 0.00, 6075.20, 0.00, 0.00, 0.00, 0.00
69, 0.00, 201.48, 0.00, 0.00, 0.00, 0.00, 6072.12, 0.00, 0.00, 0.00, 0.00
70, 0.00, 189.52, 0.00, 0.00, 0.00, 0.00, 6070.35, 0.00, 0.00, 0.00, 0.00
71, 0.00, 196.38, 0.00, 0.00, 0.00, 0.00, 6072.48, 0.00, 0.00, 0.00, 0.00
72, 0.00, 200.12, 0.00, 0.00, 0.00, 0.00, 6068.95, 0.00, 0.00, 0.00, 0.00
73, 0.00, 187.51, 0.00, 0.00, 0.00, 0.00, 6065.28, 0.00, 0.00, 0.00, 0.00
74, 0.00, 171.84, 0.00, 0.00, 0.00, 0.00, 6068.81, 0.00, 0.00, 0.00, 0.00
75, 0.00, 164.80, 0.00, 0.00, 0.00, 0.00, 6069.33, 0.00, -0.81, 0.06, -0.55
76, 0.00, 153.69, 0.00, 0.00, 0.00, 0.00, 6066.49, 0.00, 0.00, 0.00, 0.00
77, 0.00, 126.31, 0.00, 0.00, 0.00, 0.00, 6065.68, 0.00, 0.00, 0.00, 0.00
78, 0.00, 102.19, 0.00, 0.00, 0.00, 0.00, 6066.80, 0.00, 0.00, 0.00, 0.00
79, 0.00, 99.22, 0.00, 0.00, 0.00, 0.00, 6065.55, 0.00, 0.00, 0.00, 0.00
80, 0.00, 79.59, 0.00, 0.00, 0.00, 0.00, 6058.17, 0.00, 0.00, 0.00, 0.00
81, 0.00, 49.42, 0.00, 0.00, 0.00, 0.00, 6064.50, 0.00, 0.00, 0.00, 0.00
82, 0.00, -3.22, 0.00, 0.00, 0.00, 0.00, 6062.64, 0.00, 0.00, 0.00, 0.00
83, 0.00, -21.35, 0.00, 0.00, 0.00, 0.00, 6058.60, 0.00, 0.00, 0.00, 0.00
84, 0.00, -33.10, 0.00, 0.00, 0.00, 0.00, 6053.95, 0.00, 0.00, 0.00, 0.00
85, 0.00, -67.86, 0.00, 0.00, 0.00, 0.00, 6048.07, 0.00, -0.81, 0.07, -0.55
86, 0.00, -97.97, 0.00, 0.00, 0.00, 0.00, 6057.99, 0.00, 0.00, 0.00, 0.00
87, 0.00, -126.98, 0.00, 0.00, 0.00, 0.00, 6059.04, 0.00, 0.00, 0.00, 0.00
88, 0.00, -136.48, 0.00, 0.00, 0.00, 0.00, 6048.90, 0.00, 0.00, 0.00, 0.00
89, 0.00, -143.12, 0.00, 0.00, 0.00, 0.00, 6047.91, 0.00, 0.00, 0.00, 0.00
90, 0.00, -142.20, 0.00, 0.00, 0.00, 0.00, 6048.78, 0.00, 0.00, 0.00, 0.00
91, 0.00, -140.95, 0.00, 0.00, 0.00, 0.00, 6055.15, 0.00, 0.00, 0.00, 0.00
92, 0.00, -127.65, 0.00, 0.00, 0.00, 0.00, 6047.60, 0.00, 0.00, 0.00, 0.00
93, 0.00, -121.95, 0.00, 0.00, 0.00, 0.00, 6044.43, 0.00, 0.00, 0.00, 0.00
94, 0.00, -102.33, 0.00, 0.00, 0.00, 0.00, 6053.84, 0.00, -0.81, 0.06, -0.55
95, 0.00, -62.38, 0.00, 0.00, 0.00, 0.00, 6060.36, 0.00, 0.00, 0.00, 0.00
96, 0.00, -23.34, 0.00, 0.00, 0.00, 0.00, 6059.71, 0.00, 0.00, 0.00, 0.00
97, 0.00, 3.24, 0.00, 0.00, 0.00, 0.00, 6056.43, 0.00, 0.00, 0.00, 0.00
98, 0.00, 26.91, 0.00, 0.00, 0.00, 0.00, 6053.03, 0.00, 0.00, 0.00, 0.00
99, 0.00, 58.85, 0.00, 0.00, 0.00, 0.00, 6060.97, 0.00, 0.00, 0.00, 0.00
100, 0.00, 81.99, 0.00, 0.00, 0.00, 0.00, 6059.45, 0.00, 0.00, 0.00, 0.00
101, 0.00, 101.34, 0.00, 0.00, 0.00, 0.00, 6057.50, 0.00, 0.00, 0.00, 0.00
102, 0.00, 121.66, 0.00, 0.00, 0.00, 0.00, 6060.23, 0.00, 0.00, 0.00, 0.00
103, 0.00, 149.18, 0.00, 0.00, 0.00, 0.00, 6066.69, 0.00, 0.00, 0.00, 0.00
104, 0.00, 178.68, 0.00, 0.00, 0.00, 0.00, 6060.97, 0.00, -0.81, 0.06, -0.55
105, 0.00, 208.88, 0.00, 0.00, 0.00, 0.00, 6062.53, 0.00, 0.00, 0.00, 0.00
106, 0.00, 218.38, 0.00, 0.00, 0.00, 0.00, 6066.78, 0.00, 0.00, 0.00, 0.00
107, 0.00, 226.15, 0.00, 0.00, 0.00, 0.00, 6069.55, 0.00, 0.00, 0.00, 0.00
108, 0.00, 243.66, 0.00, 0.00, 0.00, 0.00, 6061.46, 0.00, 0.00, 0.00, 0.00
109, 0.00, 270.99, 0.00, 0.00, 0.00, 0.00, 6064.48, 0.00, 0.00, 0.00, 0.00
110, 0.00, 277.41, 0.00, 0.00, 0.00, 0.00, 6069.35, 0.00, 0.00, 0.00, 0.00
111, 0.00, 290.82, 0.00, 0.00, 0.00, 0.00, 6072.79, 0.00, 0.00, 0.00, 0.00
112, 0.00, 300.65, 0.00, 0.00, 0.00, 0.00, 6069.06, 0.00, 0.00, 0.00, 0.00
113, 0.00, 316.03, 0.00, 0.00, 0.00, 0.00, 6076.52, 0.00, 0.00, 0.00, 0.00
114, 0.00, 312.32, 0.00, 0.00, 0.00, 0.00, 6072.68, 0.00, -0.81, 0.05, -0.55
115, 0.00, 307.18, 0.00, 0.00, 0.00, 0.00, 6065.19, 0.00, 0.00, 0.00, 0.00
116, 0.00, 315.18, 0.00, 0.00, 0.00, 0.00, 6068.52, 0.00, 0.00, 0.00, 0.00
117, 0.00, 323.61, 0.00, 0.00, 0.00, 0.00, 6067.65, 0.00, 0.00, 0.00, 0.00
118, 0.00, 313.08, 0.00, 0.00, 0.00, 0.00, 6059.09, 0.00, 0.00, 0.00, 0.00
119, 0.00, 319.99, 0.00, 0.00, 0.00, 0.00, 6062.64, 0.00, 0.00, 0.00, 0.00
120, 0.00, 319.38, 0.00, 0.00, 0.00, 0.00, 6070.09, 0.00, 0.00, 0.00, 0.00
121, 0.00, 324.57, 0.00, 0.00, 0.00, 0.00, 6074.62, 0.00, 0.00, 0.00, 0.00
122, 0.00, 319.65, 0.00, 0.00, 0.00, 0.00, 6070.09, 0.00, 0.00, 0.00, 0.00
123, 0.00, 316.41, 0.00, 0.00, 0.00, 0.00, 6068.74, 0.00, -0.81, 0.05, -0.56
124, 0.00, 315.07, 0.00, 0.00, 0.00, 0.00, 6064.12, 0.00, 0.00, 0.00, 0.00
125, 0.00, 313.44, 0.00, 0.00, 0.00, 0.00, 6065.44, 0.00, 0.00, 0.00, 0.00
126, 0.00, 303.47, 0.00, 0.00, 0.00, 0.00, 6060.97, 0.00, 0.00, 0.00, 0.00
127, 0.00, 300.56, 0.00, 0.00, 0.00, 0.00, 6052.05, 0.00, 0.00, 0.00, 0.00
128, 0.00, 303.80, 0.00, 0.00, 0.00, 0.00, 6056.92, 0.00, 0.00, 0.00, 0.00
129, 0.00, 312.88, 0.00, 0.00, 0.00, 0.00, 6062.75, 0.00, 0.00, 0.00, 0.00
130, 0.00, 316.93, 0.00, 0.00, 0.00, 0.00, 6062.60, 0.00, 0.00, 0.00, 0.00
131, 0.00, 315.72, 0.00, 0.00, 0.00, 0.00, 6061.57, 0.00, 0.00, 0.00, 0.00
132, 0.00, 303.29, 0.00, 0.00, 0.00, 0.00, 6058.78, 0.00, 0.00, 0.00, 0.00
133, 0.00, 303.31, 0.00, 0.00, 0.00, 0.00, 6053.77, 0.00, -0.79, 0.04, -0.54
134, 0.00, 302.26, 0.00, 0.00, 0.00, 0.00, 6047.51, 0.00, 0.00, 0.00, 0.00
135, 0.00, 298.31, 0.00, 0.00, 0.00, 0.00, 6047.33, 0.00, 0.00, 0.00, 0.00
136, 0.00, 288.07, 0.00, 0.00, 0.00, 0.00, 6047.69, 0.00, 0.00, 0.00, 0.00
137, 0.00, 289.81, 0.00, 0.00, 0.00, 0.00, 6045.79, 0.00, 0.00, 0.00, 0.00
138, 0.00, 303.16, 0.00, 0.00, 0.00, 0.00, 6046.79, 0.00, 0.00, 0.00, 0.00
139, 0.00, 303.65, 0.00, 0.00, 0.00, 0.00, 6048.56, 0.00, 0.00, 0.00, 0.00
140, 0.00, 298.46, 0.00, 0.00, 0.00, 0.00, 6046.50, 0.00, 0.00, 0.00, 0.00
141, 0.00, 294.77, 0.00, 0.00, 0.00, 0.00, 6045.68, 0.00, 0.00, 0.00, 0.00
142, 0.00, 292.85, 0.00, 0.00, 0.00, 0.00, 6037.63, 0.00, 0.00, 0.00, 0.00
143, 0.00, 292.05, 0.00, 0.00, 0.00, 0.00, 6034.84, 0.00, -0.79, 0.03, -0.53
144, 0.00, 287.29, 0.00, 0.00, 0.00, 0.00, 6042.55, 0.00, 0.00, 0.00, 0.00
145, 0.00, 285.68, 0.00, 0.00, 0.00, 0.00, 6046.30, 0.00, 0.00, 0.00, 0.00
146, 0.00, 285.39, 0.00, 0.00, 0.00, 0.00, 6029.90, 0.00, 0.00, 0.00, 0.00
147, 0.00, 286.33, 0.00, 0.00, 0.00, 0.00, 6042.19, 0.00, 0.00, 0.00, 0.00
148, 0.00, 282.91, 0.00, 0.00, 0.00, 0.00, 6050.42, 0.00, 0.00, 0.00, 0.00
149, 0.00, 279.55, 0.00, 0.00, 0.00, 0.00, 6049.92, 0.00, 0.00, 0.00, 0.00
150, 0.00, 279.60, 0.00, 0.00, 0.00, 0.00, 6038.35, 0.00, 0.00, 0.00, 0.00
151, 0.00, 273.67, 0.00, 0.00, 0.00, 0.00, 6031.95, 0.00, 0.00, 0.00, 0.00
152, 0.00, 275.91, 0.00, 0.00, 0.00, 0.00, 6032.87, 0.00, -0.80, 0.04, -0.53
153, 0.00, 273.00, 0.00, 0.00, 0.00, 0.00, 6038.64, 0.00, 0.00, 0.00, 0.00
154, 0.00, 269.72, 0.00, 0.00, 0.00, 0.00, 6044.34, 0.00, 0.00, 0.00, 0.00
155, 0.00, 276.83, 0.00, 0.00, 0.00, 0.00, 6053.66, 0.00, 0.00, 0.00, 0.00
156, 0.00, 275.28, 0.00, 0.00, 0.00, 0.00, 6049.39, 0.00, 0.00, 0.00, 0.00
157, 0.00, 268.76, 0.00, 0.00, 0.00, 0.00, 6048.63, 0.00, 0.00, 0.00, 0.00
158, 0.00, 266.63, 0.00, 0.00, 0.00, 0.00, 6054.51, 0.00, 0.00, 0.00, 0.00
159, 0.00, 266.05, 0.00, 0.00, 0.00, 0.00, 6050.86, 0.00, 0.00, 0.00, 0.00
160, 0.00, 263.73, 0.00, 0.00, 0.00, 0.00, 6045.83, 0.00, 0.00, 0.00, 0.00
161, 0.00, 267.84, 0.00, 0.00, 0.00, 0.00, 6055.76, 0.00, 0.00, 0.00, 0.00
162, 0.00, 266.41, 0.00, 0.00, 0.00, 0.00, 6067.69, 0.00, -0.81, 0.04, -0.55
163, 0.00, 257.31, 0.00, 0.00, 0.00, 0.00, 6063.49, 0.00, 0.00, 0.00, 0.00
164, 0.00, 257.20, 0.00, 0.00, 0.00, 0.00, 6060.18, 0.00, 0.00, 0.00, 0.00
165, 0.00, 258.12, 0.00, 0.00, 0.00, 0.00, 6059.85, 0.00, 0.00, 0.00, 0.00
166, 0.00, 256.46, 0.00, 0.00, 0.00, 0.00, 6063.54, 0.00, 0.00, 0.00, 0.00
167, 0.00, 253.20, 0.00, 0.00, 0.00, 0.00, 6062.80, 0.00, 0.00, 0.00, 0.00
168, 0.00, 251.10, 0.00, 0.00, 0.00, 0.00, 6061.61, 0.00, 0.00, 0.00, 0.00
169, 0.00, 252.40, 0.00, 0.00, 0.00, 0.00, 6071.23, 0.00, 0.00, 0.00, 0.00
170, 0.00, 242.81, 0.00, 0.00, 0.00, 0.00, 6064.18, 0.00, 0.00, 0.00, 0.00
171, 0.00, 247.46, 0.00, 0.00, 0.00, 0.00, 6065.84, 0.00, 0.00, 0.00, 0.00
172, 0.00, 246.34, 0.00, 0.00, 0.00, 0.00, 6065.62, 0.00, -0.81, 0.03, -0.55
173, 0.00, 237.29, 0.00, 0.00, 0.00, 0.00, 6064.68, 0.00, 0.00, 0.00, 0.00
174, 0.00, 241.22, 0.00, 0.00, 0.00, 0.00, 6057.88, 0.00, 0.00, 0.00, 0.00
175, 0.00, 271.95, 0.00, 0.00, 0.00, 0.00, 6054.28, 0.00, 0.00, 0.00, 0.00
176, 0.00, 288.02, 0.00, 0.00, 0.00, 0.00, 6060.74, 0.00, 0.00, 0.00, 0.00
177, 0.00, 277.72, 0.00, 0.00, 0.00, 0.00, 6075.41, 0.00, 0.00, 0.00, 0.00
178, 0.00, 258.68, 0.00, 0.00, 0.00, 0.00, 6090.60, 0.00, 0.00, 0.00, 0.00
179, 0.00, 294.15, 0.00, 0.00, 0.00, 0.00, 6099.52, 0.00, 0.00, 0.00, 0.00
180, 0.00, 333.33, 0.00, 0.00, 0.00, 0.00, 6099.92, 0.00, 0.00, 0.00, 0.00
181, 0.00, 349.51, 0.00, 0.00, 0.00, 0.00, 6092.28, 0.00, -0.82, 0.03, -0.55
182, 0.00, 353.58, 0.00, 0.00, 0.00, 0.00, 6100.84, 0.00, 0.00, 0.00, 0.00
183, 0.00, 342.07, 0.00, 0.00, 0.00, 0.00, 6106.92, 0.00, 0.00, 0.00, 0.00
184, 0.00, 370.82, 0.00, 0.00, 0.00, 0.00, 6105.24, 0.00, 0.00, 0.00, 0.00
185, 0.00, 377.48, 0.00, 0.00, 0.00, 0.00, 6092.15, 0.00, 0.00, 0.00, 0.00
186, 0.00, 378.17, 0.00, 0.00, 0.00, 0.00, 6104.24, 0.00, 0.00, 0.00, 0.00
187, 0.00, 371.69, 0.00, 0.00, 0.00, 0.00, 6108.20, 0.00, 0.00, 0.00, 0.00
188, 0.00, 373.86, 0.00, 0.00, 0.00, 0.00, 6103.12, 0.00, 0.00, 0.00, 0.00
189, 0.00, 372.00, 0.00, 0.00, 0.00, 0.00, 6104.28, 0.00, 0.00, 0.00, 0.00
190, 0.00, 366.19, 0.00, 0.00, 0.00, 0.00, 6102.88, 0.00, 0.00, 0.00, 0.00
191, 0.00, 367.17, 0.00, 0.00, 0.00, 0.00, 6110.34, 0.00, -0.82, 0.03, -0.55
192, 0.00, 369.65, 0.00, 0.00, 0.00, 0.00, 6117.27, 0.00, 0.00, 0.00, 0.00
193, 0.00, 373.48, 0.00, 0.00, 0.00, 0.00, 6101.82, 0.00, 0.00, 0.00, 0.00
194, 0.00, 370.39, 0.00, 0.00, 0.00, 0.00, 6099.01, 0.00, 0.00, 0.00, 0.00
195, 0.00, 369.14, 0.00, 0.00, 0.00, 0.00, 6109.49, 0.00, 0.00, 0.00, 0.00
196, 0.00, 367.04, 0.00, 0.00, 0.00, 0.00, 6113.40, 0.00, 0.00, 0.00, 0.00
197, 0.00, 368.94, 0.00, 0.00, 0.00, 0.00, 6113.56, 0.00, 0.00, 0.00, 0.00
198, 0.00, 363.06, 0.00, 0.00, 0.00, 0.00, 6117.31, 0.00, 0.00, 0.00, 0.00
199, 0.00, 371.11, 0.00, 0.00, 0.00, 0.00, 6126.39, 0.00, 0.00, 0.00, 0.00
200, 0.00, 364.40, 0.00, 0.00, 0.00, 0.00, 6122.10, 0.00, 0.00, 0.00, 0.00
201, 0.00, 357.49, 0.00, 0.00, 0.00, 0.00, 6114.88, 0.00, -0.81, 0.03, -0.54
202, 0.00, 364.29, 0.00, 0.00, 0.00, 0.00, 6115.77, 0.00, 0.00, 0.00, 0.00
203, 0.00, 375.08, 0.00, 0.00, 0.00, 0.00, 6126.12, 0.00, 0.00, 0.00, 0.00
204, 0.00, 367.44, 0.00, 0.00, 0.00, 0.00, 6126.46, 0.00, 0.00, 0.00, 0.00
205, 0.00, 365.23, 0.00, 0.00, 0.00, 0.00, 6115.08, 0.00, 0.00, 0.00, 0.00
206, 0.00, 358.75, 0.00, 0.00, 0.00, 0.00, 6112.64, 0.00, 0.00, 0.00, 0.00
207, 0.00, 367.06, 0.00, 0.00, 0.00, 0.00, 6120.56, 0.00, 0.00, 0.00, 0.00
208, 0.00, 374.57, 0.00, 0.00, 0.00, 0.00, 6114.27, 0.00, 0.00, 0.00, 0.00
209, 0.00, 381.37, 0.00, 0.00, 0.00, 0.00, 6112.75, 0.00, 0.00, 0.00, 0.00
210, 0.00, 380.63, 0.00, 0.00, 0.00, 0.00, 6117.18, 0.00, -0.82, 0.03, -0.55
211, 0.00, 374.12, 0.00, 0.00, 0.00, 0.00, 6110.21, 0.00, 0.00, 0.00, 0.00
212, 0.00, 361.27, 0.00, 0.00, 0.00, 0.00, 6109.22, 0.00, 0.00, 0.00, 0.00
213, 0.00, 359.73, 0.00, 0.00, 0.00, 0.00, 6109.69, 0.00, 0.00, 0.00, 0.00
214, 0.00, 361.07, 0.00, 0.00, 0.00, 0.00, 6112.49, 0.00, 0.00, 0.00, 0.00
215, 0.00, 354.14, 0.00, 0.00, 0.00, 0.00, 6109.47, 0.00, 0.00, 0.00, 0.00
216, 0.00, 358.28, 0.00, 0.00, 0.00, 0.00, 6111.53, 0.00, 0.00, 0.00, 0.00
217, 0.00, 361.45, 0.00, 0.00, 0.00, 0.00, 6115.62, 0.00, 0.00, 0.00, 0.00
218, 0.00, 360.24, 0.00, 0.00, 0.00, 0.00, 6116.51, 0.00, 0.00, 0.00, 0.00
219, 0.00, 350.23, 0.00, 0.00, 0.00, 0.00, 6122.39, 0.00, 0.00, 0.00, 0.00
220, 0.00, 357.61, 0.00, 0.00, 0.00, 0.00, 6136.58, 0.00, -0.81, 0.03, -0.55
221, 0.00, 356.13, 0.00, 0.00, 0.00, 0.00, 6129.47, 0.00, 0.00, 0.00, 0.00
222, 0.00, 355.84, 0.00, 0.00, 0.00, 0.00, 6131.04, 0.00, 0.00, 0.00, 0.00
223, 0.00, 361.54, 0.00, 0.00, 0.00, 0.00, 6133.72, 0.00, 0.00, 0.00, 0.00
224, 0.00, 360.56, 0.00, 0.00, 0.00, 0.00, 6130.77, 0.00, 0.00, 0.00, 0.00
225, 0.00, 352.24, 0.00, 0.00, 0.00, 0.00, 6125.18, 0.00, 0.00, 0.00, 0.00
226, 0.00, 353.78, 0.00, 0.00, 0.00, 0.00, 6128.00, 0.00, 0.00, 0.00, 0.00
227, 0.00, 353.63, 0.00, 0.00, 0.00, 0.00, 6129.32, 0.00, 0.00, 0.00, 0.00
228, 0.00, 360.89, 0.00, 0.00, 0.00, 0.00, 6132.09, 0.00, 0.00, 0.00, 0.00
229, 0.00, 360.40, 0.00, 0.00, 0.00, 0.00, 6134.21, 0.00, 0.00, 0.00, 0.00
230, 0.00, 355.04, 0.00, 0.00, 0.00, 0.00, 6129.52, 0.00, -0.81, 0.01, -0.53
231, 0.00, 360.56, 0.00, 0.00, 0.00, 0.00, 6126.34, 0.00, 0.00, 0.00, 0.00
232, 0.00, 361.85, 0.00, 0.00, 0.00, 0.00, 6133.68, 0.00, 0.00, 0.00, 0.00
233, 0.00, 355.68, 0.00, 0.00, 0.00, 0.00, 6132.74, 0.00, 0.00, 0.00, 0.00
234, 0.00, 363.73, 0.00, 0.00, 0.00, 0.00, 6132.74, 0.00, 0.00, 0.00, 0.00
235, 0.00, 358.16, 0.00, 0.00, 0.00, 0.00, 6129.41, 0.00, 0.00, 0.00, 0.00
236, 0.00, 364.62, 0.00, 0.00, 0.00, 0.00, 6135.49, 0.00, 0.00, 0.00, 0.00
237, 0.00, 368.00, 0.00, 0.00, 0.00, 0.00, 6134.46, 0.00, 0.00, 0.00, 0.00
238, 0.00, 370.79, 0.00, 0.00, 0.00, 0.00, 6136.47, 0.00, 0.00, 0.00, 0.00
239, 0.00, 374.26, 0.00, 0.00, 0.00, 0.00, 6139.33, 0.00, -0.82, 0.01, -0.53
240, 0.00, 378.93, 0.00, 0.00, 0.00, 0.00, 6139.62, 0.00, 0.00, 0.00, 0.00
241, 0.00, 373.23, 0.00, 0.00, 0.00, 0.00, 6139.00, 0.00, 0.00, 0.00, 0.00
242, 0.00, 376.47, 0.00, 0.00, 0.00, 0.00, 6146.42, 0.00, 0.00, 0.00, 0.00
243, 0.00, 376.76, 0.00, 0.00, 0.00, 0.00, 6144.23, 0.00, 0.00, 0.00, 0.00
244, 0.00, 370.21, 0.00, 0.00, 0.00, 0.00, 6144.61, 0.00, 0.00, 0.00, 0.00
245, 0.00, 379.53, 0.00, 0.00, 0.00, 0.00, 6151.71, 0.00, 0.00, 0.00, 0.00
246, 0.00, 377.10, 0.00, 0.00, 0.00, 0.00, 6149.08, 0.00, 0.00, 0.00, 0.00
247, 0.00, 365.18, 0.00, 0.00, 0.00, 0.00, 6135.98, 0.00, 0.00, 0.00, 0.00
248, 0.00, 371.58, 0.00, 0.00, 0.00, 0.00, 6139.98, 0.00, 0.00, 0.00, 0.00
249, 0.00, 377.10, 0.00, 0.00, 0.00, 0.00, 6150.75, 0.00, -0.82, 0.01, -0.54
250, 0.00, 373.97, 0.00, 0.00, 0.00, 0.00, 6149.93, 0.00, 0.00, 0.00, 0.00
251, 0.00, 384.14, 0.00, 0.00, 0.00, 0.00, 6148.72, 0.00, 0.00, 0.00, 0.00
252, 0.00, 377.70, 0.00, 0.00, 0.00, 0.00, 6147.40, 0.00, 0.00, 0.00, 0.00
253, 0.00, 371.58, 0.00, 0.00, 0.00, 0.00, 6150.15, 0.00, 0.00, 0.00, 0.00
254, 0.00, 367.78, 0.00, 0.00, 0.00, 0.00, 6152.94, 0.00, 0.00, 0.00, 0.00
255, 0.00, 374.44, 0.00, 0.00, 0.00, 0.00, 6151.51, 0.00, 0.00, 0.00, 0.00
0, 0.00, 376.29, 0.00, 0.00, 0.00, 0.00, 6158.55, 0.00, 0.00, 0.00, 0.00
1, 0.00, 371.55, 0.00, 0.00, 0.00, 0.00, 6157.41, 0.00, 0.00, 0.00, 0.00
2, 0.00, 376.34, 0.00, 0.00, 0.00, 0.00, 6157.70, 0.00, -0.81, 0.00, -0.55
3, 0.00, 379.24, 0.00, 0.00, 0.00, 0.00, 6156.52, 0.00, 0.00, 0.00, 0.00
4, 0.00, 372.25, 0.00, 0.00, 0.00, 0.00, 6149.77, 0.00, 0.00, 0.00, 0.00
5, 0.00, 375.58, 0.00, 0.00, 0.00, 0.00, 6155.36, 0.00, 0.00, 0.00, 0.00
6, 0.00, 368.36, 0.00, 0.00, 0.00, 0.00, 6156.74, 0.00, 0.00, 0.00, 0.00
7, 0.00, 370.26, 0.00, 0.00, 0.00, 0.00, 6158.49, 0.00, 0.00, 0.00, 0.00
8, 0.00, 379.58, 0.00, 0.00, 0.00, 0.00, 6158.87, 0.00, 0.00, 0.00, 0.00
9, 0.00, 385.30, 0.00, 0.00, 0.00, 0.00, 6163.11, 0.00, 0.00, 0.00, 0.00
10, 0.00, 392.34, 0.00, 0.00, 0.00, 0.00, 6162.58, 0.00, 0.00, 0.00, 0.00
11, 0.00, 409.37, 0.00, 0.00, 0.00, 0.00, 6166.35, 0.00, 0.00, 0.00, 0.00
12, 0.00, 390.89, 0.00, 0.00, 0.00, 0.00, 6176.14, 0.00, -0.82, -0.01, -0.54
13, 0.00, 377.77, 0.00, 0.00, 0.00, 0.00, 6185.64, 0.00, 0.00, 0.00, 0.00
14, 0.00, 399.34, 0.00, 0.00, 0.00, 0.00, 6188.62, 0.00, 0.00, 0.00, 0.00
15, 0.00, 407.61, 0.00, 0.00, 0.00, 0.00, 6182.94, 0.00, 0.00, 0.00, 0.00
16, 0.00, 415.92, 0.00, 0.00, 0.00, 0.00, 6185.40, 0.00, 0.00, 0.00, 0.00
17, 0.00, 415.03, 0.00, 0.00, 0.00, 0.00, 6181.84, 0.00, 0.00, 0.00, 0.00
18, 0.00, 412.70, 0.00, 0.00, 0.00, 0.00, 6185.91, 0.00, 0.00, 0.00, 0.00
19, 0.00, 403.92, 0.00, 0.00, 0.00, 0.00, 6186.36, 0.00, 0.00, 0.00, 0.00
20, 0.00, 409.19, 0.00, 0.00, 0.00, 0.00, 6182.67, 0.00, 0.00, 0.00, 0.00
21, 0.00, 415.36, 0.00, 0.00, 0.00, 0.00, 6193.40, 0.00, 0.00, 0.00, 0.00
22, 0.00, 414.89, 0.00, 0.00, 0.00, 0.00, 6202.12, 0.00, -0.82, -0.01, -0.54
23, 0.00, 412.01, 0.00, 0.00, 0.00, 0.00, 6205.11, 0.00, 0.00, 0.00, 0.00
24, 0.00, 410.51, 0.00, 0.00, 0.00, 0.00, 6192.51, 0.00, 0.00, 0.00, 0.00
25, 0.00, 410.24, 0.00, 0.00, 0.00, 0.00, 6188.10, 0.00, 0.00, 0.00, 0.00
26, 0.00, 413.60, 0.00, 0.00, 0.00, 0.00, 6202.81, 0.00, 0.00, 0.00, 0.00
27, 0.00, 412.88, 0.00, 0.00, 0.00, 0.00, 6212.85, 0.00, 0.00, 0.00, 0.00
28, 0.00, 416.14, 0.00, 0.00, 0.00, 0.00, 6213.47, 0.00, 0.00, 0.00, 0.00
29, 0.00, 420.97, 0.00, 0.00, 0.00, 0.00, 6211.10, 0.00, 0.00, 0.00, 0.00
30, 0.00, 420.08, 0.00, 0.00, 0.00, 0.00, 6212.06, 0.00, 0.00, 0.00, 0.00
31, 0.00, 413.64, 0.00, 0.00, 0.00, 0.00, 6209.90, 0.00, -0.81, -0.01, -0.54
32, 0.00, 411.65, 0.00, 0.00, 0.00, 0.00, 6206.99, 0.00, 0.00, 0.00, 0.00
33, 0.00, 412.19, 0.00, 0.00, 0.00, 0.00, 6209.54, 0.00, 0.00, 0.00, 0.00
34, 0.00, 403.20, 0.00, 0.00, 0.00, 0.00, 6206.16, 0.00, 0.00, 0.00, 0.00
35, 0.00, 414.09, 0.00, 0.00, 0.00, 0.00, 6212.51, 0.00, 0.00, 0.00, 0.00
36, 0.00, 426.83, 0.00, 0.00, 0.00, 0.00, 6219.95, 0.00, 0.00, 0.00, 0.00
37, 0.00, 409.28, 0.00, 0.00, 0.00, 0.00, 6199.46, 0.00, 0.00, 0.00, 0.00
38, 0.00, 408.55, 0.00, 0.00, 0.00, 0.00, 6195.52, 0.00, 0.00, 0.00, 0.00
39, 0.00, 410.78, 0.00, 0.00, 0.00, 0.00, 6210.34, 0.00, 0.00, 0.00, 0.00
40, 0.00, 418.04, 0.00, 0.00, 0.00, 0.00, 6222.50, 0.00, 0.00, 0.00, 0.00
41, 0.00, 421.08, 0.00, 0.00, 0.00, 0.00, 6208.89, 0.00, -0.82, -0.02, -0.54
42, 0.00, 417.89, 0.00, 0.00, 0.00, 0.00, 6209.20, 0.00, 0.00, 0.00, 0.00
43, 0.00, 416.03, 0.00, 0.00, 0.00, 0.00, 6221.21, 0.00, 0.00, 0.00, 0.00
44, 0.00, 418.76, 0.00, 0.00, 0.00, 0.00, 6222.23, 0.00, 0.00, 0.00, 0.00
45, 0.00, 424.84, 0.00, 0.00, 0.00, 0.00, 6221.29, 0.00, 0.00, 0.00, 0.00
46, 0.00, 423.90, 0.00, 0.00, 0.00, 0.00, 6228.02, 0.00, 0.00, 0.00, 0.00
47, 0.00, 423.95, 0.00, 0.00, 0.00, 0.00, 6232.47, 0.00, 0.00, 0.00, 0.00
48, 0.00, 436.04, 0.00, 0.00, 0.00, 0.00, 6243.45, 0.00, 0.00, 0.00, 0.00
49, 0.00, 430.16, 0.00, 0.00, 0.00, 0.00, 6230.53, 0.00, 0.00, 0.00, 0.00
50, 0.00, 432.31, 0.00, 0.00, 0.00, 0.00, 6228.78, 0.00, 0.00, 0.00, 0.00
51, 0.00, 432.60, 0.00, 0.00, 0.00, 0.00, 6230.30, 0.00, -0.82, -0.02, -0.54
52, 0.00, 432.91, 0.00, 0.00, 0.00, 0.00, 6233.74, 0.00, 0.00, 0.00, 0.00
53, 0.00, 439.90, 0.00, 0.00, 0.00, 0.00, 6232.02, 0.00, 0.00, 0.00, 0.00
54, 0.00, 423.07, 0.00, 0.00, 0.00, 0.00, 6219.57, 0.00, 0.00, 0.00, 0.00
55, 0.00, 420.79, 0.00, 0.00, 0.00, 0.00, 6219.17, 0.00, 0.00, 0.00, 0.00
56, 0.00, 422.22, 0.00, 0.00, 0.00, 0.00, 6229.92, 0.00, 0.00, 0.00, 0.00
57, 0.00, 432.48, 0.00, 0.00, 0.00, 0.00, 6227.29, 0.00, 0.00, 0.00, 0.00
58, 0.00, 441.49, 0.00, 0.00, 0.00, 0.00, 6228.25, 0.00, 0.00, 0.00, 0.00
59, 0.00, 440.84, 0.00, 0.00, 0.00, 0.00, 6226.03, 0.00, 0.00, 0.00, 0.00
60, 0.00, 432.73, 0.00, 0.00, 0.00, 0.00, 6221.52, 0.00, -0.82, -0.02, -0.53
61, 0.00, 436.75, 0.00, 0.00, 0.00, 0.00, 6228.27, 0.00, 0.00, 0.00, 0.00
62, 0.00, 437.22, 0.00, 0.00, 0.00, 0.00, 6231.29, 0.00, 0.00, 0.00, 0.00
63, 0.00, 425.73, 0.00, 0.00, 0.00, 0.00, 6226.17, 0.00, 0.00, 0.00, 0.00
64, 0.00, 422.98, 0.00, 0.00, 0.00, 0.00, 6222.46, 0.00, 0.00, 0.00, 0.00
65, 0.00, 424.46, 0.00, 0.00, 0.00, 0.00, 6217.96, 0.00, 0.00, 0.00, 0.00
66, 0.00, 428.57, 0.00, 0.00, 0.00, 0.00, 6224.76, 0.00, 0.00, 0.00, 0.00
67, 0.00, 435.28, 0.00, 0.00, 0.00, 0.00, 6233.41, 0.00, 0.00, 0.00, 0.00
68, 0.00, 425.24, 0.00, 0.00, 0.00, 0.00, 6235.87, 0.00, 0.00, 0.00, 0.00
69, 0.00, 435.64, 0.00, 0.00, 0.00, 0.00, 6237.66, 0.00, 0.00, 0.00, 0.00
70, 0.00, 436.26, 0.00, 0.00, 0.00, 0.00, 6242.40, 0.00, -0.82, -0.03, -0.54
71, 0.00, 434.25, 0.00, 0.00, 0.00, 0.00, 6238.01, 0.00, 0.00, 0.00, 0.00
72, 0.00, 428.73, 0.00, 0.00, 0.00, 0.00, 6238.95, 0.00, 0.00, 0.00, 0.00
73, 0.00, 445.31, 0.00, 0.00, 0.00, 0.00, 6235.26, 0.00, 0.00, 0.00, 0.00
74, 0.00, 454.23, 0.00, 0.00, 0.00, 0.00, 6232.29, 0.00, 0.00, 0.00, 0.00
75, 0.00, 395.20, 0.00, 0.00, 0.00, 0.00, 6231.69, 0.00, 0.00, 0.00, 0.00
76, 0.00, 360.69, 0.00, 0.00, 0.00, 0.00, 6237.54, 0.00, 0.00, 0.00, 0.00
77, 0.00, 355.91, 0.00, 0.00, 0.00, 0.00, 6235.04, 0.00, 0.00, 0.00, 0.00
78, 0.00, 329.60, 0.00, 0.00, 0.00, 0.00, 6240.63, 0.00, 0.00, 0.00, 0.00
79, 0.00, 273.50, 0.00, 0.00, 0.00, 0.00, 6234.82, 0.00, 0.00, 0.00, 0.00
80, 0.00, 236.06, 0.00, 0.00, 0.00, 0.00, 6240.76, 0.00, -0.81, -0.04, -0.54
81, 0.00, 197.72, 0.00, 0.00, 0.00, 0.00, 6247.09, 0.00, 0.00, 0.00, 0.00
82, 0.00, 174.77, 0.00, 0.00, 0.00, 0.00, 6246.73, 0.00, 0.00, 0.00, 0.00
83, 0.00, 155.21, 0.00, 0.00, 0.00, 0.00, 6241.57, 0.00, 0.00, 0.00, 0.00
84, 0.00, 134.02, 0.00, 0.00, 0.00, 0.00, 6246.78, 0.00, 0.00, 0.00, 0.00
85, 0.00, 110.95, 0.00, 0.00, 0.00, 0.00, 6250.78, 0.00, 0.00, 0.00, 0.00
86, 0.00, 102.37, 0.00, 0.00, 0.00, 0.00, 6244.09, 0.00, 0.00, 0.00, 0.00
87, 0.00, 97.63, 0.00, 0.00, 0.00, 0.00, 6238.66, 0.00, 0.00, 0.00, 0.00
88, 0.00, 82.34, 0.00, 0.00, 0.00, 0.00, 6240.58, 0.00, 0.00, 0.00, 0.00
89, 0.00, 76.87, 0.00, 0.00, 0.00, 0.00, 6250.11, 0.00, -0.81, -0.06, -0.53
90, 0.00, 87.91, 0.00, 0.00, 0.00, 0.00, 6249.32, 0.00, 0.00, 0.00, 0.00
91, 0.00, 102.97, 0.00, 0.00, 0.00, 0.00, 6247.76, 0.00, 0.00, 0.00, 0.00
92, 0.00, 113.21, 0.00, 0.00, 0.00, 0.00, 6252.70, 0.00, 0.00, 0.00, 0.00
93, 0.00, 111.07, 0.00, 0.00, 0.00, 0.00, 6256.14, 0.00, 0.00, 0.00, 0.00
94, 0.00, 111.51, 0.00, 0.00, 0.00, 0.00, 6255.76, 0.00, 0.00, 0.00, 0.00
95, 0.00, 116.45, 0.00, 0.00, 0.00, 0.00, 6249.46, 0.00, 0.00, 0.00, 0.00
96, 0.00, 121.17, 0.00, 0.00, 0.00, 0.00, 6255.87, 0.00, 0.00, 0.00, 0.00
97, 0.00, 128.41, 0.00, 0.00, 0.00, 0.00, 6266.09, 0.00, 0.00, 0.00, 0.00
98, 0.00, 129.37, 0.00, 0.00, 0.00, 0.00, 6268.68, 0.00, 0.00, 0.00, 0.00
99, 0.00, 133.28, 0.00, 0.00, 0.00, 0.00, 6268.23, 0.00, -0.81, -0.06, -0.53
100, 0.00, 132.75, 0.00, 0.00, 0.00, 0.00, 6265.84, 0.00, 0.00, 0.00, 0.00
101, 0.00, 133.06, 0.00, 0.00, 0.00, 0.00, 6278.90, 0.00, 0.00, 0.00, 0.00
102, 0.00, 135.61, 0.00, 0.00, 0.00, 0.00, 6284.51, 0.00, 0.00, 0.00, 0.00
103, 0.00, 143.79, 0.00, 0.00, 0.00, 0.00, 6282.09, 0.00, 0.00, 0.00, 0.00
104, 0.00, 149.94, 0.00, 0.00, 0.00, 0.00, 6275.48, 0.00, 0.00, 0.00, 0.00
105, 0.00, 154.03, 0.00, 0.00, 0.00, 0.00, 6273.98, 0.00, 0.00, 0.00, 0.00
106, 0.00, 149.13, 0.00, 0.00, 0.00, 0.00, 6280.71, 0.00, 0.00, 0.00, 0.00
107, 0.00, 149.38, 0.00, 0.00, 0.00, 0.00, 6274.94, 0.00, 0.00, 0.00, 0.00
108, 0.00, 156.19, 0.00, 0.00, 0.00, 0.00, 6275.94, 0.00, 0.00, 0.00, 0.00
109, 0.00, 151.61, 0.00, 0.00, 0.00, 0.00, 6276.57, 0.00, -0.81, -0.06, -0.53
110, 0.00, 155.21, 0.00, 0.00, 0.00, 0.00, 6277.44, 0.00, 0.00, 0.00, 0.00
111, 0.00, 160.71, 0.00, 0.00, 0.00, 0.00, 6268.55, 0.00, 0.00, 0.00, 0.00
112, 0.00, 161.85, 0.00, 0.00, 0.00, 0.00, 6262.13, 0.00, 0.00, 0.00, 0.00
113, 0.00, 158.34, 0.00, 0.00, 0.00, 0.00, 6267.74, 0.00, 0.00, 0.00, 0.00
114, 0.00, 163.46, 0.00, 0.00, 0.00, 0.00, 6272.61, 0.00, 0.00, 0.00, 0.00
115, 0.00, 169.25, 0.00, 0.00, 0.00, 0.00, 6278.34, 0.00, 0.00, 0.00, 0.00
116, 0.00, 172.53, 0.00, 0.00, 0.00, 0.00, 6279.39, 0.00, 0.00, 0.00, 0.00
117, 0.00, 165.18, 0.00, 0.00, 0.00, 0.00, 6278.87, 0.00, 0.00, 0.00, 0.00
118, 0.00, 162.45, 0.00, 0.00, 0.00, 0.00, 6282.31, 0.00, -0.81, -0.06, -0.54
119, 0.00, 172.58, 0.00, 0.00, 0.00, 0.00, 6287.23, 0.00, 0.00, 0.00, 0.00
120, 0.00, 174.50, 0.00, 0.00, 0.00, 0.00, 6286.09, 0.00, 0.00, 0.00, 0.00
121, 0.00, 166.36, 0.00, 0.00, 0.00, 0.00, 6282.09, 0.00, 0.00, 0.00, 0.00
122, 0.00, 163.46, 0.00, 0.00, 0.00, 0.00, 6290.59, 0.00, 0.00, 0.00, 0.00
123, 0.00, 156.22, 0.00, 0.00, 0.00, 0.00, 6295.88, 0.00, 0.00, 0.00, 0.00
124, 0.00, 158.99, 0.00, 0.00, 0.00, 0.00, 6292.24, 0.00, 0.00, 0.00, 0.00
125, 0.00, 158.03, 0.00, 0.00, 0.00, 0.00, 6282.14, 0.00, 0.00, 0.00, 0.00
126, 0.00, 159.01, 0.00, 0.00, 0.00, 0.00, 6296.67, 0.00, 0.00, 0.00, 0.00
127, 0.00, 158.61, 0.00, 0.00, 0.00, 0.00, 6303.50, 0.00, 0.00, 0.00, 0.00
128, 0.00, 160.22, 0.00, 0.00, 0.00, 0.00, 6299.71, 0.00, -0.80, -0.07, -0.54
129, 0.00, 159.32, 0.00, 0.00, 0.00, 0.00, 6296.13, 0.00, 0.00, 0.00, 0.00
130, 0.00, 161.25, 0.00, 0.00, 0.00, 0.00, 6298.23, 0.00, 0.00, 0.00, 0.00
131, 0.00, 155.59, 0.00, 0.00, 0.00, 0.00, 6306.66, 0.00, 0.00, 0.00, 0.00
132, 0.00, 163.53, 0.00, 0.00, 0.00, 0.00, 6307.77, 0.00, 0.00, 0.00, 0.00
133, 0.00, 172.13, 0.00, 0.00, 0.00, 0.00, 6311.26, 0.00, 0.00, 0.00, 0.00
134, 0.00, 164.29, 0.00, 0.00, 0.00, 0.00, 6307.80, 0.00, 0.00, 0.00, 0.00
135, 0.00, 158.79, 0.00, 0.00, 0.00, 0.00, 6304.02, 0.00, 0.00, 0.00, 0.00
136, 0.00, 157.78, 0.00, 0.00, 0.00, 0.00, 6300.00, 0.00, 0.00, 0.00, 0.00
137, 0.00, 166.54, 0.00, 0.00, 0.00, 0.00, 6305.54, 0.00, 0.00, 0.00, 0.00
138, 0.00, 182.35, 0.00, 0.00, 0.00, 0.00, 6306.70, 0.00, -0.80, -0.07, -0.53
139, 0.00, 198.17, 0.00, 0.00, 0.00, 0.00, 6295.48, 0.00, 0.00, 0.00, 0.00
140, 0.00, 193.54, 0.00, 0.00, 0.00, 0.00, 6306.90, 0.00, 0.00, 0.00, 0.00
141, 0.00, 166.30, 0.00, 0.00, 0.00, 0.00, 6320.65, 0.00, 0.00, 0.00, 0.00
142, 0.00, 141.15, 0.00, 0.00, 0.00, 0.00, 6311.51, 0.00, 0.00, 0.00, 0.00
143, 0.00, 136.99, 0.00, 0.00, 0.00, 0.00, 6306.59, 0.00, 0.00, 0.00, 0.00
144, 0.00, 116.88, 0.00, 0.00, 0.00, 0.00, 6304.20, 0.00, 0.00, 0.00, 0.00
145, 0.00, 105.95, 0.00, 0.00, 0.00, 0.00, 6297.18, 0.00, 0.00, 0.00, 0.00
146, 0.00, 97.07, 0.00, 0.00, 0.00, 0.00, 6300.26, 0.00, 0.00, 0.00, 0.00
147, 0.00, 93.63, 0.00, 0.00, 0.00, 0.00, 6304.33, 0.00, -0.81, -0.07, -0.53
148, 0.00, 102.33, 0.00, 0.00, 0.00, 0.00, 6302.81, 0.00, 0.00, 0.00, 0.00
149, 0.00, 111.78, 0.00, 0.00, 0.00, 0.00, 6301.69, 0.00, 0.00, 0.00, 0.00
150, 0.00, 112.07, 0.00, 0.00, 0.00, 0.00, 6298.56, 0.00, 0.00, 0.00, 0.00
151, 0.00, 117.48, 0.00, 0.00, 0.00, 0.00, 6304.04, 0.00, 0.00, 0.00, 0.00
152, 0.00, 123.54, 0.00, 0.00, 0.00, 0.00, 6307.57, 0.00, 0.00, 0.00, 0.00
153, 0.00, 123.52, 0.00, 0.00, 0.00, 0.00, 6305.83, 0.00, 0.00, 0.00, 0.00
154, 0.00, 126.67, 0.00, 0.00, 0.00, 0.00, 6297.63, 0.00, 0.00, 0.00, 0.00
155, 0.00, 130.40, 0.00, 0.00, 0.00, 0.00, 6301.25, 0.00, 0.00, 0.00, 0.00
156, 0.00, 129.62, 0.00, 0.00, 0.00, 0.00, 6310.72, 0.00, 0.00, 0.00, 0.00
157, 0.00, 128.54, 0.00, 0.00, 0.00, 0.00, 6303.26, 0.00, -0.80, -0.06, -0.54
158, 0.00, 129.13, 0.00, 0.00, 0.00, 0.00, 6300.58, 0.00, 0.00, 0.00, 0.00
159, 0.00, 133.24, 0.00, 0.00, 0.00, 0.00, 6306.86, 0.00, 0.00, 0.00, 0.00
160, 0.00, 128.63, 0.00, 0.00, 0.00, 0.00, 6307.19, 0.00, 0.00, 0.00, 0.00
161, 0.00, 123.18, 0.00, 0.00, 0.00, 0.00, 6308.06, 0.00, 0.00, 0.00, 0.00
162, 0.00, 135.70, 0.00, 0.00, 0.00, 0.00, 6311.84, 0.00, 0.00, 0.00, 0.00
163, 0.00, 138.76, 0.00, 0.00, 0.00, 0.00, 6313.99, 0.00, 0.00, 0.00, 0.00
164, 0.00, 141.24, 0.00, 0.00, 0.00, 0.00, 6315.22, 0.00, 0.00, 0.00, 0.00
165, 0.00, 135.68, 0.00, 0.00, 0.00, 0.00, 6308.24, 0.00, 0.00, 0.00, 0.00
166, 0.00, 137.15, 0.00, 0.00, 0.00, 0.00, 6313.12, 0.00, 0.00, 0.00, 0.00
167, 0.00, 131.74, 0.00, 0.00, 0.00, 0.00, 6312.76, 0.00, -0.81, -0.07, -0.54
168, 0.00, 131.16, 0.00, 0.00, 0.00, 0.00, 6315.57, 0.00, 0.00, 0.00, 0.00
169, 0.00, 139.32, 0.00, 0.00, 0.00, 0.00, 6315.64, 0.00, 0.00, 0.00, 0.00
170, 0.00, 149.15, 0.00, 0.00, 0.00, 0.00, 6312.71, 0.00, 0.00, 0.00, 0.00
171, 0.00, 155.12, 0.00, 0.00, 0.00, 0.00, 6312.91, 0.00, 0.00, 0.00, 0.00
172, 0.00, 156.04, 0.00, 0.00, 0.00, 0.00, 6315.31, 0.00, 0.00, 0.00, 0.00
173, 0.00, 150.56, 0.00, 0.00, 0.00, 0.00, 6308.20, 0.00, 0.00, 0.00, 0.00
174, 0.00, 141.33, 0.00, 0.00, 0.00, 0.00, 6302.10, 0.00, 0.00, 0.00, 0.00
175, 0.00, 141.06, 0.00, 0.00, 0.00, 0.00, 6306.23, 0.00, 0.00, 0.00, 0.00
176, 0.00, 145.96, 0.00, 0.00, 0.00, 0.00, 6313.47, 0.00, -0.81, -0.07, -0.54
177, 0.00, 152.06, 0.00, 0.00, 0.00, 0.00, 6319.71, 0.00, 0.00, 0.00, 0.00
178, 0.00, 154.76, 0.00, 0.00, 0.00, 0.00, 6326.12, 0.00, 0.00, 0.00, 0.00
179, 0.00, 153.85, 0.00, 0.00, 0.00, 0.00, 6322.46, 0.00, 0.00, 0.00, 0.00
180, 0.00, 150.85, 0.00, 0.00, 0.00, 0.00, 6320.94, 0.00, 0.00, 0.00, 0.00
181, 0.00, 152.28, 0.00, 0.00, 0.00, 0.00, 6335.20, 0.00, 0.00, 0.00, 0.00
182, 0.00, 153.24, 0.00, 0.00, 0.00, 0.00, 6331.78, 0.00, 0.00, 0.00, 0.00
183, 0.00, 157.33, 0.00, 0.00, 0.00, 0.00, 6332.43, 0.00, 0.00, 0.00, 0.00
184, 0.00, 160.11, 0.00, 0.00, 0.00, 0.00, 6335.58, 0.00, 0.00, 0.00, 0.00
185, 0.00, 159.99, 0.00, 0.00, 0.00, 0.00, 6339.16, 0.00, 0.00, 0.00, 0.00
186, 0.00, 161.13, 0.00, 0.00, 0.00, 0.00, 6344.72, 0.00, -0.81, -0.06, -0.54
187, 0.00, 164.29, 0.00, 0.00, 0.00, 0.00, 6352.25, 0.00, 0.00, 0.00, 0.00
188, 0.00, 160.89, 0.00, 0.00, 0.00, 0.00, 6353.51, 0.00, 0.00, 0.00, 0.00
189, 0.00, 160.24, 0.00, 0.00, 0.00, 0.00, 6358.67, 0.00, 0.00, 0.00, 0.00
190, 0.00, 162.90, 0.00, 0.00, 0.00, 0.00, 6361.04, 0.00, 0.00, 0.00, 0.00
191, 0.00, 169.38, 0.00, 0.00, 0.00, 0.00, 6355.27, 0.00, 0.00, 0.00, 0.00
192, 0.00, 171.26, 0.00, 0.00, 0.00, 0.00, 6359.72, 0.00, 0.00, 0.00, 0.00
193, 0.00, 167.77, 0.00, 0.00, 0.00, 0.00, 6370.27, 0.00, 0.00, 0.00, 0.00
194, 0.00, 166.21, 0.00, 0.00, 0.00, 0.00, 6372.91, 0.00, 0.00, 0.00, 0.00
195, 0.00, 169.94, 0.00, 0.00, 0.00, 0.00, 6361.08, 0.00, 0.00, 0.00, 0.00
196, 0.00, 168.51, 0.00, 0.00, 0.00, 0.00, 6363.77, 0.00, -0.82, -0.06, -0.54
197, 0.00, 167.15, 0.00, 0.00, 0.00, 0.00, 6367.61, 0.00, 0.00, 0.00, 0.00
198, 0.00, 173.45, 0.00, 0.00, 0.00, 0.00, 6364.86, 0.00, 0.00, 0.00, 0.00
199, 0.00, 179.69, 0.00, 0.00, 0.00, 0.00, 6360.59, 0.00, 0.00, 0.00, 0.00
200, 0.00, 173.36, 0.00, 0.00, 0.00, 0.00, 6351.27, 0.00, 0.00, 0.00, 0.00
201, 0.00, 159.95, 0.00, 0.00, 0.00, 0.00, 6353.73, 0.00, 0.00, 0.00, 0.00
202, 0.00, 158.61, 0.00, 0.00, 0.00, 0.00, 6360.61, 0.00, 0.00, 0.00, 0.00
203, 0.00, 156.33, 0.00, 0.00, 0.00, 0.00, 6351.36, 0.00, 0.00, 0.00, 0.00
204, 0.00, 155.61, 0.00, 0.00, 0.00, 0.00, 6346.76, 0.00, 0.00, 0.00, 0.00
205, 0.00, 157.22, 0.00, 0.00, 0.00, 0.00, 6351.14, 0.00, -0.82, -0.05, -0.54
206, 0.00, 159.21, 0.00, 0.00, 0.00, 0.00, 6364.06, 0.00, 0.00, 0.00, 0.00
207, 0.00, 161.85, 0.00, 0.00, 0.00, 0.00, 6360.37, 0.00, 0.00, 0.00, 0.00
208, 0.00, 168.38, 0.00, 0.00, 0.00, 0.00, 6358.15, 0.00, 0.00, 0.00, 0.00
209, 0.00, 162.79, 0.00, 0.00, 0.00, 0.00, 6353.44, 0.00, 0.00, 0.00, 0.00
210, 0.00, 166.65, 0.00, 0.00, 0.00, 0.00, 6359.16, 0.00, 0.00, 0.00, 0.00
211, 0.00, 169.25, 0.00, 0.00, 0.00, 0.00, 6356.30, 0.00, 0.00, 0.00, 0.00
212, 0.00, 181.34, 0.00, 0.00, 0.00, 0.00, 6360.57, 0.00, 0.00, 0.00, 0.00
213, 0.00, 181.72, 0.00, 0.00, 0.00, 0.00, 6364.97, 0.00, 0.00, 0.00, 0.00
214, 0.00, 173.27, 0.00, 0.00, 0.00, 0.00, 6361.37, 0.00, 0.00, 0.00, 0.00
215, 0.00, 165.51, 0.00, 0.00, 0.00, 0.00, 6359.14, 0.00, -0.82, -0.05, -0.54
216, 0.00, 177.23, 0.00, 0.00, 0.00, 0.00, 6363.99, 0.00, 0.00, 0.00, 0.00
217, 0.00, 172.18, 0.00, 0.00, 0.00, 0.00, 6365.87, 0.00, 0.00, 0.00, 0.00
218, 0.00, 161.13, 0.00, 0.00, 0.00, 0.00, 6361.48, 0.00, 0.00, 0.00, 0.00
219, 0.00, 172.49, 0.00, 0.00, 0.00, 0.00, 6372.95, 0.00, 0.00, 0.00, 0.00
220, 0.00, 171.64, 0.00, 0.00, 0.00, 0.00, 6368.17, 0.00, 0.00, 0.00, 0.00
221, 0.00, 172.53, 0.00, 0.00, 0.00, 0.00, 6366.07, 0.00, 0.00, 0.00, 0.00
222, 0.00, 179.55, 0.00, 0.00, 0.00, 0.00, 6370.67, 0.00, 0.00, 0.00, 0.00
223, 0.00, 179.86, 0.00, 0.00, 0.00, 0.00, 6375.25, 0.00, 0.00, 0.00, 0.00
224, 0.00, 177.05, 0.00, 0.00, 0.00, 0.00, 6369.60, 0.00, 0.00, 0.00, 0.00
225, 0.00, 171.01, 0.00, 0.00, 0.00, 0.00, 6372.57, 0.00, -0.82, -0.05, -0.54
226, 0.00, 173.09, 0.00, 0.00, 0.00, 0.00, 6382.72, 0.00, 0.00, 0.00, 0.00
227, 0.00, 178.52, 0.00, 0.00, 0.00, 0.00, 6381.85, 0.00, 0.00, 0.00, 0.00
228, 0.00, 173.87, 0.00, 0.00, 0.00, 0.00, 6374.52, 0.00, 0.00, 0.00, 0.00
229, 0.00, 177.16, 0.00, 0.00, 0.00, 0.00, 6375.30, 0.00, 0.00, 0.00, 0.00
230, 0.00, 166.48, 0.00, 0.00, 0.00, 0.00, 6376.93, 0.00, 0.00, 0.00, 0.00
231, 0.00, 168.26, 0.00, 0.00, 0.00, 0.00, 6379.03, 0.00, 0.00, 0.00, 0.00
232, 0.00, 177.54, 0.00, 0.00, 0.00, 0.00, 6382.23, 0.00, 0.00, 0.00, 0.00
233, 0.00, 181.59, 0.00, 0.00, 0.00, 0.00, 6391.68, 0.00, 0.00, 0.00, 0.00
234, 0.00, 174.23, 0.00, 0.00, 0.00, 0.00, 6384.06, 0.00, -0.82, -0.05, -0.54
235, 0.00, 169.18, 0.00, 0.00, 0.00, 0.00, 6380.66, 0.00, 0.00, 0.00, 0.00
236, 0.00, 175.89, 0.00, 0.00, 0.00, 0.00, 6386.50, 0.00, 0.00, 0.00, 0.00
237, 0.00, 175.77, 0.00, 0.00, 0.00, 0.00, 6384.28, 0.00, 0.00, 0.00, 0.00
238, 0.00, 171.10, 0.00, 0.00, 0.00, 0.00, 6383.05, 0.00, 0.00, 0.00, 0.00
239, 0.00, 172.20, 0.00, 0.00, 0.00, 0.00, 6389.18, 0.00, 0.00, 0.00, 0.00
240, 0.00, 163.35, 0.00, 0.00, 0.00, 0.00, 6384.19, 0.00, 0.00, 0.00, 0.00
241, 0.00, 169.11, 0.00, 0.00, 0.00, 0.00, 6390.34, 0.00, 0.00, 0.00, 0.00
242, 0.00, 184.98, 0.00, 0.00, 0.00, 0.00, 6393.11, 0.00, 0.00, 0.00, 0.00
243, 0.00, 181.76, 0.00, 0.00, 0.00, 0.00, 6390.05, 0.00, 0.00, 0.00, 0.00
244, 0.00, 170.54, 0.00, 0.00, 0.00, 0.00, 6390.54, 0.00, -0.81, -0.06, -0.55
245, 0.00, 170.57, 0.00, 0.00, 0.00, 0.00, 6391.55, 0.00, 0.00, 0.00, 0.00
246, 0.00, 164.02, 0.00, 0.00, 0.00, 0.00, 6386.54, 0.00, 0.00, 0.00, 0.00
247, 0.00, 161.22, 0.00, 0.00, 0.00, 0.00, 6389.76, 0.00, 0.00, 0.00, 0.00
248, 0.00, 166.32, 0.00, 0.00, 0.00, 0.00, 6394.52, 0.00, 0.00, 0.00, 0.00
249, 0.00, 169.38, 0.00, 0.00, 0.00, 0.00, 6394.01, 0.00, 0.00, 0.00, 0.00
250, 0.00, 169.00, 0.00, 0.00, 0.00, 0.00, 6393.00, 0.00, 0.00, 0.00, 0.00
251, 0.00, 172.53, 0.00, 0.00, 0.00, 0.00, 6398.57, 0.00, 0.00, 0.00, 0.00
252, 0.00, 173.81, 0.00, 0.00, 0.00, 0.00, 6402.50, 0.00, 0.00, 0.00, 0.00
253, 0.00, 175.64, 0.00, 0.00, 0.00, 0.00, 6404.51, 0.00, 0.00, 0.00, 0.00
254, 0.00, 167.55, 0.00, 0.00, 0.00, 0.00, 6396.38, 0.00, -0.82, -0.06, -0.54
255, 0.00, 167.91, 0.00, 0.00, 0.00, 0.00, 6403.80, 0.00, 0.00, 0.00, 0.00
0, 0.00, 162.18, 0.00, 0.00, 0.00, 0.00, 6407.75, 0.00, 0.00, 0.00, 0.00
1, 0.00, 164.11, 0.00, 0.00, 0.00, 0.00, 6407.55, 0.00, 0.00, 0.00, 0.00
2, 0.00, 169.23, 0.00, 0.00, 0.00, 0.00, 6403.33, 0.00, 0.00, 0.00, 0.00
3, 0.00, 166.34, 0.00, 0.00, 0.00, 0.00, 6406.08, 0.00, 0.00, 0.00, 0.00
4, 0.00, 163.95, 0.00, 0.00, 0.00, 0.00, 6416.49, 0.00, 0.00, 0.00, 0.00
5, 0.00, 167.91, 0.00, 0.00, 0.00, 0.00, 6416.22, 0.00, 0.00, 0.00, 0.00
6, 0.00, 157.71, 0.00, 0.00, 0.00, 0.00, 6408.40, 0.00, 0.00, 0.00, 0.00
7, 0.00, 163.93, 0.00, 0.00, 0.00, 0.00, 6411.22, 0.00, -0.82, -0.05, -0.53
8, 0.00, 171.50, 0.00, 0.00, 0.00, 0.00, 6421.50, 0.00, 0.00, 0.00, 0.00
9, 0.00, 174.37, 0.00, 0.00, 0.00, 0.00, 6429.97, 0.00, 0.00, 0.00, 0.00
10, 0.00, 173.16, 0.00, 0.00, 0.00, 0.00, 6427.06, 0.00, 0.00, 0.00, 0.00
11, 0.00, 166.30, 0.00, 0.00, 0.00, 0.00, 6422.24, 0.00, 0.00, 0.00, 0.00
12, 0.00, 164.58, 0.00, 0.00, 0.00, 0.00, 6426.26, 0.00, 0.00, 0.00, 0.00
13, 0.00, 171.01, 0.00, 0.00, 0.00, 0.00, 6425.21, 0.00, 0.00, 0.00, 0.00
14, 0.00, 176.49, 0.00, 0.00, 0.00, 0.00, 6427.89, 0.00, 0.00, 0.00, 0.00
15, 0.00, 173.52, 0.00, 0.00, 0.00, 0.00, 6432.52, 0.00, 0.00, 0.00, 0.00
16, 0.00, 172.47, 0.00, 0.00, 0.00, 0.00, 6436.36, 0.00, 0.00, 0.00, 0.00
17, 0.00, 174.43, 0.00, 0.00, 0.00, 0.00, 6441.46, 0.00, -0.81, -0.05, -0.54
18, 0.00, 171.37, 0.00, 0.00, 0.00, 0.00, 6436.25, 0.00, 0.00, 0.00, 0.00
19, 0.00, 176.42, 0.00, 0.00, 0.00, 0.00, 6436.05, 0.00, 0.00, 0.00, 0.00
20, 0.00, 173.47, 0.00, 0.00, 0.00, 0.00, 6432.90, 0.00, 0.00, 0.00, 0.00
21, 0.00, 174.95, 0.00, 0.00, 0.00, 0.00, 6440.72, 0.00, 0.00, 0.00, 0.00
22, 0.00, 174.48, 0.00, 0.00, 0.00, 0.00, 6449.17, 0.00, 0.00, 0.00, 0.00
23, 0.00, 177.70, 0.00, 0.00, 0.00, 0.00, 6442.40, 0.00, 0.00, 0.00, 0.00
24, 0.00, 178.90, 0.00, 0.00, 0.00, 0.00, 6440.99, 0.00, 0.00, 0.00, 0.00
25, 0.00, 173.02, 0.00, 0.00, 0.00, 0.00, 6443.23, 0.00, 0.00, 0.00, 0.00
26, 0.00, 170.61, 0.00, 0.00, 0.00, 0.00, 6444.12, 0.00, 0.00, 0.00, 0.00
27, 0.00, 170.74, 0.00, 0.00, 0.00, 0.00, 6442.09, 0.00, -0.80, -0.04, -0.54
28, 0.00, 170.72, 0.00, 0.00, 0.00, 0.00, 6438.20, 0.00, 0.00, 0.00, 0.00
29, 0.00, 179.82, 0.00, 0.00, 0.00, 0.00, 6448.23, 0.00, 0.00, 0.00, 0.00
30, 0.00, 174.86, 0.00, 0.00, 0.00, 0.00, 6454.45, 0.00, 0.00, 0.00, 0.00
31, 0.00, 169.99, 0.00, 0.00, 0.00, 0.00, 6448.50, 0.00, 0.00, 0.00, 0.00
32, 0.00, 180.80, 0.00, 0.00, 0.00, 0.00, 6453.71, 0.00, 0.00, 0.00, 0.00
33, 0.00, 175.15, 0.00, 0.00, 0.00, 0.00, 6453.75, 0.00, 0.00, 0.00, 0.00
34, 0.00, 167.79, 0.00, 0.00, 0.00, 0.00, 6453.08, 0.00, 0.00, 0.00, 0.00
35, 0.00, 180.71, 0.00, 0.00, 0.00, 0.00, 6461.60, 0.00, 0.00, 0.00, 0.00
36, 0.00, 181.03, 0.00, 0.00, 0.00, 0.00, 6463.41, 0.00, -0.81, -0.04, -0.53
37, 0.00, 172.58, 0.00, 0.00, 0.00, 0.00, 6458.07, 0.00, 0.00, 0.00, 0.00
38, 0.00, 175.35, 0.00, 0.00, 0.00, 0.00, 6456.59, 0.00, 0.00, 0.00, 0.00
39, 0.00, 174.97, 0.00, 0.00, 0.00, 0.00, 6456.93, 0.00, 0.00, 0.00, 0.00
40, 0.00, 178.75, 0.00, 0.00, 0.00, 0.00, 6465.11, 0.00, 0.00, 0.00, 0.00
41, 0.00, 181.56, 0.00, 0.00, 0.00, 0.00, 6465.09, 0.00, 0.00, 0.00, 0.00
42, 0.00, 178.90, 0.00, 0.00, 0.00, 0.00, 6465.87, 0.00, 0.00, 0.00, 0.00
43, 0.00, 168.91, 0.00, 0.00, 0.00, 0.00, 6465.67, 0.00, 0.00, 0.00, 0.00
44, 0.00, 170.59, 0.00, 0.00, 0.00, 0.00, 6463.19, 0.00, 0.00, 0.00, 0.00
45, 0.00, 171.30, 0.00, 0.00, 0.00, 0.00, 6460.48, 0.00, 0.00, 0.00, 0.00
46, 0.00, 182.35, 0.00, 0.00, 0.00, 0.00, 6462.76, 0.00, -0.81, -0.05, -0.52
47, 0.00, 181.67, 0.00, 0.00, 0.00, 0.00, 6462.65, 0.00, 0.00, 0.00, 0.00
48, 0.00, 190.24, 0.00, 0.00, 0.00, 0.00, 6470.99, 0.00, 0.00, 0.00, 0.00
49, 0.00, 186.21, 0.00, 0.00, 0.00, 0.00, 6473.38, 0.00, 0.00, 0.00, 0.00
50, 0.00, 179.22, 0.00, 0.00, 0.00, 0.00, 6471.23, 0.00, 0.00, 0.00, 0.00
51, 0.00, 177.09, 0.00, 0.00, 0.00, 0.00, 6468.77, 0.00, 0.00, 0.00, 0.00
52, 0.00, 181.47, 0.00, 0.00, 0.00, 0.00, 6467.32, 0.00, 0.00, 0.00, 0.00
53, 0.00, 181.43, 0.00, 0.00, 0.00, 0.00, 6460.68, 0.00, 0.00, 0.00, 0.00
54, 0.00, 181.59, 0.00, 0.00, 0.00, 0.00, 6466.09, 0.00, 0.00, 0.00, 0.00
55, 0.00, 178.43, 0.00, 0.00, 0.00, 0.00, 6472.01, 0.00, 0.00, 0.00, 0.00
56, 0.00, 179.04, 0.00, 0.00, 0.00, 0.00, 6474.21, 0.00, -0.80, -0.05, -0.53
57, 0.00, 183.11, 0.00, 0.00, 0.00, 0.00, 6474.45, 0.00, 0.00, 0.00, 0.00
58, 0.00, 176.67, 0.00, 0.00, 0.00, 0.00, 6470.74, 0.00, 0.00, 0.00, 0.00
59, 0.00, 173.87, 0.00, 0.00, 0.00, 0.00, 6469.04, 0.00, 0.00, 0.00, 0.00
60, 0.00, 180.56, 0.00, 0.00, 0.00, 0.00, 6473.31, 0.00, 0.00, 0.00, 0.00
61, 0.00, 179.24, 0.00, 0.00, 0.00, 0.00, 6475.01, 0.00, 0.00, 0.00, 0.00
62, 0.00, 176.82, 0.00, 0.00, 0.00, 0.00, 6474.25, 0.00, 0.00, 0.00, 0.00
63, 0.00, 172.49, 0.00, 0.00, 0.00, 0.00, 6468.68, 0.00, 0.00, 0.00, 0.00
64, 0.00, 172.98, 0.00, 0.00, 0.00, 0.00, 6467.19, 0.00, 0.00, 0.00, 0.00
65, 0.00, 172.00, 0.00, 0.00, 0.00, 0.00, 6473.94, 0.00, -0.81, -0.05, -0.54
66, 0.00, 167.50, 0.00, 0.00, 0.00, 0.00, 6472.48, 0.00, 0.00, 0.00, 0.00
67, 0.00, 173.63, 0.00, 0.00, 0.00, 0.00, 6471.63, 0.00, 0.00, 0.00, 0.00
68, 0.00, 182.90, 0.00, 0.00, 0.00, 0.00, 6471.92, 0.00, 0.00, 0.00, 0.00
69, 0.00, 184.74, 0.00, 0.00, 0.00, 0.00, 6470.47, 0.00, 0.00, 0.00, 0.00
70, 0.00, 176.76, 0.00, 0.00, 0.00, 0.00, 6472.01, 0.00, 0.00, 0.00, 0.00
71, 0.00, 175.82, 0.00, 0.00, 0.00, 0.00, 6478.34, 0.00, 0.00, 0.00, 0.00
72, 0.00, 172.40, 0.00, 0.00, 0.00, 0.00, 6471.99, 0.00, 0.00, 0.00, 0.00
73, 0.00, 174.92, 0.00, 0.00, 0.00, 0.00, 6472.86, 0.00, 0.00, 0.00, 0.00
74, 0.00, 189.39, 0.00, 0.00, 0.00, 0.00, 6482.65, 0.00, 0.00, 0.00, 0.00
75, 0.00, 184.38, 0.00, 0.00, 0.00, 0.00, 6485.56, 0.00, -0.81, -0.05, -0.53
76, 0.00, 180.47, 0.00, 0.00, 0.00, 0.00, 6488.29, 0.00, 0.00, 0.00, 0.00
77, 0.00, 183.51, 0.00, 0.00, 0.00, 0.00, 6487.28, 0.00, 0.00, 0.00, 0.00
78, 0.00, 184.25, 0.00, 0.00, 0.00, 0.00, 6483.21, 0.00, 0.00, 0.00, 0.00
79, 0.00, 178.10, 0.00, 0.00, 0.00, 0.00, 6484.20, 0.00, 0.00, 0.00, 0.00
80, 0.00, 178.23, 0.00, 0.00, 0.00, 0.00, 6492.58, 0.00, 0.00, 0.00, 0.00
81, 0.00, 180.07, 0.00, 0.00, 0.00, 0.00, 6494.59, 0.00, 0.00, 0.00, 0.00
82, 0.00, 177.36, 0.00, 0.00, 0.00, 0.00, 6488.22, 0.00, 0.00, 0.00, 0.00
83, 0.00, 176.60, 0.00, 0.00, 0.00, 0.00, 6485.49, 0.00, 0.00, 0.00, 0.00
84, 0.00, 178.97, 0.00, 0.00, 0.00, 0.00, 6486.65, 0.00, 0.00, 0.00, 0.00
85, 0.00, 183.40, 0.00, 0.00, 0.00, 0.00, 6487.46, 0.00, -0.82, -0.05, -0.54
86, 0.00, 182.41, 0.00, 0.00, 0.00, 0.00, 6483.10, 0.00, 0.00, 0.00, 0.00
87, 0.00, 187.98, 0.00, 0.00, 0.00, 0.00, 6489.65, 0.00, 0.00, 0.00, 0.00
88, 0.00, 184.58, 0.00, 0.00, 0.00, 0.00, 6494.70, 0.00, 0.00, 0.00, 0.00
89, 0.00, 183.80, 0.00, 0.00, 0.00, 0.00, 6495.15, 0.00, 0.00, 0.00, 0.00
90, 0.00, 185.16, 0.00, 0.00, 0.00, 0.00, 6491.44, 0.00, 0.00, 0.00, 0.00
91, 0.00, 173.63, 0.00, 0.00, 0.00, 0.00, 6490.23, 0.00, 0.00, 0.00, 0.00
92, 0.00, 173.00, 0.00, 0.00, 0.00, 0.00, 6492.15, 0.00, 0.00, 0.00, 0.00
93, 0.00, 186.50, 0.00, 0.00, 0.00, 0.00, 6493.38, 0.00, 0.00, 0.00, 0.00
94, 0.00, 192.98, 0.00, 0.00, 0.00, 0.00, 6494.28, 0.00, -0.81, -0.05, -0.54
95, 0.00, 186.30, 0.00, 0.00, 0.00, 0.00, 6498.26, 0.00, 0.00, 0.00, 0.00
96, 0.00, 185.59, 0.00, 0.00, 0.00, 0.00, 6499.17, 0.00, 0.00, 0.00, 0.00
97, 0.00, 179.08, 0.00, 0.00, 0.00, 0.00, 6495.66, 0.00, 0.00, 0.00, 0.00
98, 0.00, 182.86, 0.00, 0.00, 0.00, 0.00, 6506.59, 0.00, 0.00, 0.00, 0.00
99, 0.00, 180.18, 0.00, 0.00, 0.00, 0.00, 6505.32, 0.00, 0.00, 0.00, 0.00
100, 0.00, 183.84, 0.00, 0.00, 0.00, 0.00, 6503.44, 0.00, 0.00, 0.00, 0.00
101, 0.00, 181.36, 0.00, 0.00, 0.00, 0.00, 6498.30, 0.00, 0.00, 0.00, 0.00
102, 0.00, 180.92, 0.00, 0.00, 0.00, 0.00, 6500.54, 0.00, 0.00, 0.00, 0.00
103, 0.00, 176.42, 0.00, 0.00, 0.00, 0.00, 6503.04, 0.00, 0.00, 0.00, 0.00
104, 0.00, 173.83, 0.00, 0.00, 0.00, 0.00, 6504.22, 0.00, -0.81, -0.05, -0.54
105, 0.00, 180.80, 0.00, 0.00, 0.00, 0.00, 6508.22, 0.00, 0.00, 0.00, 0.00
106, 0.00, 180.47, 0.00, 0.00, 0.00, 0.00, 6511.22, 0.00, 0.00, 0.00, 0.00
107, 0.00, 181.67, 0.00, 0.00, 0.00, 0.00, 6511.26, 0.00, 0.00, 0.00, 0.00
108, 0.00, 181.05, 0.00, 0.00, 0.00, 0.00, 6512.23, 0.00, 0.00, 0.00, 0.00
109, 0.00, 182.64, 0.00, 0.00, 0.00, 0.00, 6518.89, 0.00, 0.00, 0.00, 0.00
110, 0.00, 188.81, 0.00, 0.00, 0.00, 0.00, 6519.62, 0.00, 0.00, 0.00, 0.00
111, 0.00, 177.88, 0.00, 0.00, 0.00, 0.00, 6514.04, 0.00, 0.00, 0.00, 0.00
112, 0.00, 183.60, 0.00, 0.00, 0.00, 0.00, 6518.84, 0.00, 0.00, 0.00, 0.00
113, 0.00, 186.70, 0.00, 0.00, 0.00, 0.00, 6520.18, 0.00, 0.00, 0.00, 0.00
114, 0.00, 178.90, 0.00, 0.00, 0.00, 0.00, 6522.93, 0.00, -0.81, -0.05, -0.54
115, 0.00, 170.90, 0.00, 0.00, 0.00, 0.00, 6520.14, 0.00, 0.00, 0.00, 0.00
116, 0.00, 179.84, 0.00, 0.00, 0.00, 0.00, 6521.90, 0.00, 0.00, 0.00, 0.00
117, 0.00, 186.44, 0.00, 0.00, 0.00, 0.00, 6534.51, 0.00, 0.00, 0.00, 0.00
118, 0.00, 178.14, 0.00, 0.00, 0.00, 0.00, 6531.38, 0.00, 0.00, 0.00, 0.00
119, 0.00, 174.12, 0.00, 0.00, 0.00, 0.00, 6523.87, 0.00, 0.00, 0.00, 0.00
120, 0.00, 173.43, 0.00, 0.00, 0.00, 0.00, 6523.04, 0.00, 0.00, 0.00, 0.00
121, 0.00, 171.33, 0.00, 0.00, 0.00, 0.00, 6523.11, 0.00, 0.00, 0.00, 0.00
122, 0.00, 176.31, 0.00, 0.00, 0.00, 0.00, 6522.69, 0.00, 0.00, 0.00, 0.00
123, 0.00, 184.09, 0.00, 0.00, 0.00, 0.00, 6525.86, 0.00, -0.81, -0.04, -0.54
124, 0.00, 183.78, 0.00, 0.00, 0.00, 0.00, 6524.21, 0.00, 0.00, 0.00, 0.00
125, 0.00, 185.61, 0.00, 0.00, 0.00, 0.00, 6525.01, 0.00, 0.00, 0.00, 0.00
126, 0.00, 182.10, 0.00, 0.00, 0.00, 0.00, 6529.91, 0.00, 0.00, 0.00, 0.00
127, 0.00, 171.57, 0.00, 0.00, 0.00, 0.00, 6523.67, 0.00, 0.00, 0.00, 0.00
128, 0.00, 178.61, 0.00, 0.00, 0.00, 0.00, 6530.13, 0.00, 0.00, 0.00, 0.00
129, 0.00, 188.16, 0.00, 0.00, 0.00, 0.00, 6541.60, 0.00, 0.00, 0.00, 0.00
130, 0.00, 187.51, 0.00, 0.00, 0.00, 0.00, 6543.72, 0.00, 0.00, 0.00, 0.00
131, 0.00, 186.66, 0.00, 0.00, 0.00, 0.00, 6541.48, 0.00, 0.00, 0.00, 0.00
132, 0.00, 182.12, 0.00, 0.00, 0.00, 0.00, 6534.51, 0.00, 0.00, 0.00, 0.00
133, 0.00, 185.88, 0.00, 0.00, 0.00, 0.00, 6546.11, 0.00, -0.81, -0.04, -0.54
134, 0.00, 179.40, 0.00, 0.00, 0.00, 0.00, 6550.09, 0.00, 0.00, 0.00, 0.00
135, 0.00, 187.42, 0.00, 0.00, 0.00, 0.00, 6546.29, 0.00, 0.00, 0.00, 0.00
136, 0.00, 190.37, 0.00, 0.00, 0.00, 0.00, 6539.99, 0.00, 0.00, 0.00, 0.00
137, 0.00, 180.07, 0.00, 0.00, 0.00, 0.00, 6538.22, 0.00, 0.00, 0.00, 0.00
138, 0.00, 176.15, 0.00, 0.00, 0.00, 0.00, 6544.01, 0.00, 0.00, 0.00, 0.00
139, 0.00, 175.66, 0.00, 0.00, 0.00, 0.00, 6541.48, 0.00, 0.00, 0.00, 0.00
140, 0.00, 177.56, 0.00, 0.00, 0.00, 0.00, 6547.99, 0.00, 0.00, 0.00, 0.00
141, 0.00, 184.04, 0.00, 0.00, 0.00, 0.00, 6541.98, 0.00, 0.00, 0.00, 0.00
142, 0.00, 180.45, 0.00, 0.00, 0.00, 0.00, 6542.56, 0.00, 0.00, 0.00, 0.00
143, 0.00, 174.84, 0.00, 0.00, 0.00, 0.00, 6544.52, 0.00, -0.81, -0.04, -0.55
144, 0.00, 175.64, 0.00, 0.00, 0.00, 0.00, 6544.17, 0.00, 0.00, 0.00, 0.00
145, 0.00, 174.03, 0.00, 0.00, 0.00, 0.00, 6548.68, 0.00, 0.00, 0.00, 0.00
146, 0.00, 181.09, 0.00, 0.00, 0.00, 0.00, 6550.69, 0.00, 0.00, 0.00, 0.00
147, 0.00, 177.85, 0.00, 0.00, 0.00, 0.00, 6551.39, 0.00, 0.00, 0.00, 0.00
148, 0.00, 181.76, 0.00, 0.00, 0.00, 0.00, 6552.66, 0.00, 0.00, 0.00, 0.00
149, 0.00, 173.87, 0.00, 0.00, 0.00, 0.00, 6553.84, 0.00, 0.00, 0.00, 0.00
150, 0.00, 175.75, 0.00, 0.00, 0.00, 0.00, 6564.62, 0.00, 0.00, 0.00, 0.00
151, 0.00, 172.94, 0.00, 0.00, 0.00, 0.00, 6561.73, 0.00, 0.00, 0.00, 0.00
152, 0.00, 179.06, 0.00, 0.00, 0.00, 0.00, 6559.43, 0.00, -0.81, -0.05, -0.54
153, 0.00, 174.88, 0.00, 0.00, 0.00, 0.00, 6552.10, 0.00, 0.00, 0.00, 0.00
154, 0.00, 173.25, 0.00, 0.00, 0.00, 0.00, 6554.09, 0.00, 0.00, 0.00, 0.00
155, 0.00, 176.78, 0.00, 0.00, 0.00, 0.00, 6558.31, 0.00, 0.00, 0.00, 0.00
156, 0.00, 178.10, 0.00, 0.00, 0.00, 0.00, 6560.08, 0.00, 0.00, 0.00, 0.00
157, 0.00, 175.98, 0.00, 0.00, 0.00, 0.00, 6560.55, 0.00, 0.00, 0.00, 0.00
158, 0.00, 174.59, 0.00, 0.00, 0.00, 0.00, 6560.77, 0.00, 0.00, 0.00, 0.00
159, 0.00, 179.37, 0.00, 0.00, 0.00, 0.00, 6564.46, 0.00, 0.00, 0.00, 0.00
160, 0.00, 174.37, 0.00, 0.00, 0.00, 0.00, 6564.13, 0.00, 0.00, 0.00, 0.00
161, 0.00, 179.06, 0.00, 0.00, 0.00, 0.00, 6567.30, 0.00, 0.00, 0.00, 0.00
162, 0.00, 187.89, 0.00, 0.00, 0.00, 0.00, 6574.97, 0.00, -0.81, -0.04, -0.54
163, 0.00, 184.63, 0.00, 0.00, 0.00, 0.00, 6582.57, 0.00, 0.00, 0.00, 0.00
164, 0.00, 174.30, 0.00, 0.00, 0.00, 0.00, 6578.68, 0.00, 0.00, 0.00, 0.00
165, 0.00, 177.94, 0.00, 0.00, 0.00, 0.00, 6568.33, 0.00, 0.00, 0.00, 0.00
166, 0.00, 193.48, 0.00, 0.00, 0.00, 0.00, 6577.51, 0.00, 0.00, 0.00, 0.00
167, 0.00, 189.19, 0.00, 0.00, 0.00, 0.00, 6582.23, 0.00, 0.00, 0.00, 0.00
168, 0.00, 183.24, 0.00, 0.00, 0.00, 0.00, 6578.72, 0.00, 0.00, 0.00, 0.00
169, 0.00, 183.11, 0.00, 0.00, 0.00, 0.00, 6578.86, 0.00, 0.00, 0.00, 0.00
170, 0.00, 193.36, 0.00, 0.00, 0.00, 0.00, 6586.57, 0.00, 0.00, 0.00, 0.00
171, 0.00, 185.09, 0.00, 0.00, 0.00, 0.00, 6589.58, 0.00, 0.00, 0.00, 0.00
172, 0.00, 172.98, 0.00, 0.00, 0.00, 0.00, 6588.91, 0.00, -0.81, -0.04, -0.54
173, 0.00, 183.46, 0.00, 0.00, 0.00, 0.00, 6591.26, 0.00, 0.00, 0.00, 0.00
174, 0.00, 188.89, 0.00, 0.00, 0.00, 0.00, 6588.15, 0.00, 0.00, 0.00, 0.00
175, 0.00, 187.89, 0.00, 0.00, 0.00, 0.00, 6587.33, 0.00, 0.00, 0.00, 0.00
176, 0.00, 179.33, 0.00, 0.00, 0.00, 0.00, 6590.34, 0.00, 0.00, 0.00, 0.00
177, 0.00, 180.96, 0.00, 0.00, 0.00, 0.00, 6587.93, 0.00, 0.00, 0.00, 0.00
178, 0.00, 179.19, 0.00, 0.00, 0.00, 0.00, 6589.20, 0.00, 0.00, 0.00, 0.00
179, 0.00, 183.57, 0.00, 0.00, 0.00, 0.00, 6591.82, 0.00, 0.00, 0.00, 0.00
180, 0.00, 185.36, 0.00, 0.00, 0.00, 0.00, 6591.57, 0.00, 0.00, 0.00, 0.00
181, 0.00, 186.73, 0.00, 0.00, 0.00, 0.00, 6597.47, 0.00, -0.81, -0.04, -0.54
182, 0.00, 179.17, 0.00, 0.00, 0.00, 0.00, 6593.76, 0.00, 0.00, 0.00, 0.00
183, 0.00, 170.23, 0.00, 0.00, 0.00, 0.00, 6589.74, 0.00, 0.00, 0.00, 0.00
184, 0.00, 165.58, 0.00, 0.00, 0.00, 0.00, 6595.80, 0.00, 0.00, 0.00, 0.00
185, 0.00, 177.54, 0.00, 0.00, 0.00, 0.00, 6605.14, 0.00, 0.00, 0.00, 0.00
186, 0.00, 180.87, 0.00, 0.00, 0.00, 0.00, 6604.02, 0.00, 0.00, 0.00, 0.00
187, 0.00, 174.34, 0.00, 0.00, 0.00, 0.00, 6601.65, 0.00, 0.00, 0.00, 0.00
188, 0.00, 170.88, 0.00, 0.00, 0.00, 0.00, 6603.11, 0.00, 0.00, 0.00, 0.00
189, 0.00, 166.39, 0.00, 0.00, 0.00, 0.00, 6605.63, 0.00, 0.00, 0.00, 0.00
190, 0.00, 159.90, 0.00, 0.00, 0.00, 0.00, 6602.24, 0.00, 0.00, 0.00, 0.00
191, 0.00, 170.19, 0.00, 0.00, 0.00, 0.00, 6608.94, 0.00, -0.81, -0.05, -0.54
192, 0.00, 176.74, 0.00, 0.00, 0.00, 0.00, 6610.68, 0.00, 0.00, 0.00, 0.00
193, 0.00, 186.61, 0.00, 0.00, 0.00, 0.00, 6602.75, 0.00, 0.00, 0.00, 0.00
194, 0.00, 191.58, 0.00, 0.00, 0.00, 0.00, 6605.68, 0.00, 0.00, 0.00, 0.00
195, 0.00, 168.82, 0.00, 0.00, 0.00, 0.00, 6614.40, 0.00, 0.00, 0.00, 0.00
196, 0.00, 148.28, 0.00, 0.00, 0.00, 0.00, 6621.53, 0.00, 0.00, 0.00, 0.00
197, 0.00, 164.51, 0.00, 0.00, 0.00, 0.00, 6618.19, 0.00, 0.00, 0.00, 0.00
198, 0.00, 170.74, 0.00, 0.00, 0.00, 0.00, 6615.58, 0.00, 0.00, 0.00, 0.00
199, 0.00, 170.68, 0.00, 0.00, 0.00, 0.00, 6613.08, 0.00, 0.00, 0.00, 0.00
200, 0.00, 171.64, 0.00, 0.00, 0.00, 0.00, 6618.19, 0.00, -0.81, -0.05, -0.54
201, 0.00, 172.29, 0.00, 0.00, 0.00, 0.00, 6623.40, 0.00, 0.00, 0.00, 0.00
202, 0.00, 177.88, 0.00, 0.00, 0.00, 0.00, 6627.69, 0.00, 0.00, 0.00, 0.00
203, 0.00, 175.77, 0.00, 0.00, 0.00, 0.00, 6629.04, 0.00, 0.00, 0.00, 0.00
204, 0.00, 178.86, 0.00, 0.00, 0.00, 0.00, 6626.38, 0.00, 0.00, 0.00, 0.00
205, 0.00, 180.85, 0.00, 0.00, 0.00, 0.00, 6623.51, 0.00, 0.00, 0.00, 0.00
206, 0.00, 187.24, 0.00, 0.00, 0.00, 0.00, 6629.84, 0.00, 0.00, 0.00, 0.00
207, 0.00, 187.89, 0.00, 0.00, 0.00, 0.00, 6630.56, 0.00, 0.00, 0.00, 0.00
208, 0.00, 185.52, 0.00, 0.00, 0.00, 0.00, 6629.42, 0.00, 0.00, 0.00, 0.00
209, 0.00, 186.10, 0.00, 0.00, 0.00, 0.00, 6636.43, 0.00, 0.00, 0.00, 0.00
210, 0.00, 187.62, 0.00, 0.00, 0.00, 0.00, 6642.02, 0.00, -0.80, -0.04, -0.54
211, 0.00, 193.34, 0.00, 0.00, 0.00, 0.00, 6639.74, 0.00, 0.00, 0.00, 0.00
212, 0.00, 194.97, 0.00, 0.00, 0.00, 0.00, 6644.73, 0.00, 0.00, 0.00, 0.00
213, 0.00, 193.05, 0.00, 0.00, 0.00, 0.00, 6649.58, 0.00, 0.00, 0.00, 0.00
214, 0.00, 191.69, 0.00, 0.00, 0.00, 0.00, 6648.50, 0.00, 0.00, 0.00, 0.00
215, 0.00, 188.67, 0.00, 0.00, 0.00, 0.00, 6643.18, 0.00, 0.00, 0.00, 0.00
216, 0.00, 185.14, 0.00, 0.00, 0.00, 0.00, 6643.65, 0.00, 0.00, 0.00, 0.00
217, 0.00, 187.46, 0.00, 0.00, 0.00, 0.00, 6642.31, 0.00, 0.00, 0.00, 0.00
218, 0.00, 186.50, 0.00, 0.00, 0.00, 0.00, 6643.01, 0.00, 0.00, 0.00, 0.00
219, 0.00, 187.91, 0.00, 0.00, 0.00, 0.00, 6640.61, 0.00, 0.00, 0.00, 0.00
220, 0.00, 181.18, 0.00, 0.00, 0.00, 0.00, 6638.89, 0.00, -0.81, -0.04, -0.54
221, 0.00, 181.14, 0.00, 0.00, 0.00, 0.00, 6647.14, 0.00, 0.00, 0.00, 0.00
222, 0.00, 185.52, 0.00, 0.00, 0.00, 0.00, 6652.13, 0.00, 0.00, 0.00, 0.00
223, 0.00, 189.61, 0.00, 0.00, 0.00, 0.00, 6648.12, 0.00, 0.00, 0.00, 0.00
224, 0.00, 188.67, 0.00, 0.00, 0.00, 0.00, 6650.18, 0.00, 0.00, 0.00, 0.00
225, 0.00, 183.53, 0.00, 0.00, 0.00, 0.00, 6657.33, 0.00, 0.00, 0.00, 0.00
226, 0.00, 178.01, 0.00, 0.00, 0.00, 0.00, 6655.83, 0.00, 0.00, 0.00, 0.00
227, 0.00, 183.42, 0.00, 0.00, 0.00, 0.00, 6652.57, 0.00, 0.00, 0.00, 0.00
228, 0.00, 182.23, 0.00, 0.00, 0.00, 0.00, 6651.12, 0.00, 0.00, 0.00, 0.00
229, 0.00, 183.31, 0.00, 0.00, 0.00, 0.00, 6655.03, 0.00, -0.81, -0.04, -0.54
230, 0.00, 183.64, 0.00, 0.00, 0.00, 0.00, 6657.27, 0.00, 0.00, 0.00, 0.00
231, 0.00, 184.22, 0.00, 0.00, 0.00, 0.00, 6658.61, 0.00, 0.00, 0.00, 0.00
232, 0.00, 186.21, 0.00, 0.00, 0.00, 0.00, 6659.32, 0.00, 0.00, 0.00, 0.00
233, 0.00, 188.36, 0.00, 0.00, 0.00, 0.00, 6664.44, 0.00, 0.00, 0.00, 0.00
234, 0.00, 185.32, 0.00, 0.00, 0.00, 0.00, 6666.05, 0.00, 0.00, 0.00, 0.00
235, 0.00, 183.49, 0.00, 0.00, 0.00, 0.00, 6667.50, 0.00, 0.00, 0.00, 0.00
236, 0.00, 189.81, 0.00, 0.00, 0.00, 0.00, 6669.78, 0.00, 0.00, 0.00, 0.00
237, 0.00, 181.76, 0.00, 0.00, 0.00, 0.00, 6672.73, 0.00, 0.00, 0.00, 0.00
238, 0.00, 179.04, 0.00, 0.00, 0.00, 0.00, 6672.73, 0.00, 0.00, 0.00, 0.00
239, 0.00, 180.00, 0.00, 0.00, 0.00, 0.00, 6674.92, 0.00, -0.81, -0.04, -0.55
240, 0.00, 179.46, 0.00, 0.00, 0.00, 0.00, 6674.83, 0.00, 0.00, 0.00, 0.00
241, 0.00, 176.42, 0.00, 0.00, 0.00, 0.00, 6672.26, 0.00, 0.00, 0.00, 0.00
242, 0.00, 175.19, 0.00, 0.00, 0.00, 0.00, 6673.05, 0.00, 0.00, 0.00, 0.00
243, 0.00, 174.70, 0.00, 0.00, 0.00, 0.00, 6672.42, 0.00, 0.00, 0.00, 0.00
244, 0.00, 172.78, 0.00, 0.00, 0.00, 0.00, 6666.79, 0.00, 0.00, 0.00, 0.00
245, 0.00, 170.50, 0.00, 0.00, 0.00, 0.00, 6667.99, 0.00, 0.00, 0.00, 0.00
246, 0.00, 165.51, 0.00, 0.00, 0.00, 0.00, 6670.10, 0.00, 0.00, 0.00, 0.00
247, 0.00, 172.53, 0.00, 0.00, 0.00, 0.00, 6676.35, 0.00, 0.00, 0.00, 0.00
248, 0.00, 175.89, 0.00, 0.00, 0.00, 0.00, 6682.68, 0.00, 0.00, 0.00, 0.00
249, 0.00, 175.82, 0.00, 0.00, 0.00, 0.00, 6679.66, 0.00, -0.81, -0.04, -0.54
250, 0.00, 168.89, 0.00, 0.00, 0.00, 0.00, 6683.53, 0.00, 0.00, 0.00, 0.00
251, 0.00, 167.01, 0.00, 0.00, 0.00, 0.00, 6678.08, 0.00, 0.00, 0.00, 0.00
252, 0.00, 173.54, 0.00, 0.00, 0.00, 0.00, 6685.41, 0.00, 0.00, 0.00, 0.00
253, 0.00, 167.10, 0.00, 0.00, 0.00, 0.00, 6690.73, 0.00, 0.00, 0.00, 0.00
254, 0.00, 170.54, 0.00, 0.00, 0.00, 0.00, 6689.47, 0.00, 0.00, 0.00, 0.00
255, 0.00, 168.26, 0.00, 0.00, 0.00, 0.00, 6691.46, 0.00, 0.00, 0.00, 0.00
0, 0.00, 166.10, 0.00, 0.00, 0.00, 0.00, 6690.23, 0.00, 0.00, 0.00, 0.00
1, 0.00, 173.00, 0.00, 0.00, 0.00, 0.00, 6690.32, 0.00, 0.00, 0.00, 0.00
2, 0.00, 167.71, 0.00, 0.00, 0.00, 0.00, 6692.92, 0.00, -0.81, -0.03, -0.54
3, 0.00, 160.44, 0.00, 0.00, 0.00, 0.00, 6691.82, 0.00, 0.00, 0.00, 0.00
4, 0.00, 158.47, 0.00, 0.00, 0.00, 0.00, 6689.12, 0.00, 0.00, 0.00, 0.00
5, 0.00, 160.46, 0.00, 0.00, 0.00, 0.00, 6687.51, 0.00, 0.00, 0.00, 0.00
6, 0.00, 155.66, 0.00, 0.00, 0.00, 0.00, 6695.82, 0.00, 0.00, 0.00, 0.00
7, 0.00, 166.10, 0.00, 0.00, 0.00, 0.00, 6703.62, 0.00, 0.00, 0.00, 0.00
8, 0.00, 158.83, 0.00, 0.00, 0.00, 0.00, 6701.25, 0.00, 0.00, 0.00, 0.00
9, 0.00, 147.34, 0.00, 0.00, 0.00, 0.00, 6701.28, 0.00, 0.00, 0.00, 0.00
10, 0.00, 154.54, 0.00, 0.00, 0.00, 0.00, 6708.52, 0.00, 0.00, 0.00, 0.00
11, 0.00, 160.22, 0.00, 0.00, 0.00, 0.00, 6713.19, 0.00, 0.00, 0.00, 0.00
12, 0.00, 154.58, 0.00, 0.00, 0.00, 0.00, 6713.50, 0.00, -0.81, -0.03, -0.54
13, 0.00, 156.91, 0.00, 0.00, 0.00, 0.00, 6711.36, 0.00, 0.00, 0.00, 0.00
14, 0.00, 160.40, 0.00, 0.00, 0.00, 0.00, 6706.95, 0.00, 0.00, 0.00, 0.00
15, 0.00, 153.00, 0.00, 0.00, 0.00, 0.00, 6710.60, 0.00, 0.00, 0.00, 0.00
16, 0.00, 158.43, 0.00, 0.00, 0.00, 0.00, 6720.99, 0.00, 0.00, 0.00, 0.00
17, 0.00, 164.04, 0.00, 0.00, 0.00, 0.00, 6719.63, 0.00, 0.00, 0.00, 0.00
18, 0.00, 163.19, 0.00, 0.00, 0.00, 0.00, 6716.23, 0.00, 0.00, 0.00, 0.00
19, 0.00, 164.37, 0.00, 0.00, 0.00, 0.00, 6714.98, 0.00, 0.00, 0.00, 0.00
20, 0.00, 151.39, 0.00, 0.00, 0.00, 0.00, 6714.26, 0.00, 0.00, 0.00, 0.00
21, 0.00, 156.33, 0.00, 0.00, 0.00, 0.00, 6719.96, 0.00, 0.00, 0.00, 0.00
22, 0.00, 166.61, 0.00, 0.00, 0.00, 0.00, 6716.74, 0.00, -0.80, -0.03, -0.54
23, 0.00, 163.70, 0.00, 0.00, 0.00, 0.00, 6717.15, 0.00, 0.00, 0.00, 0.00
24, 0.00, 160.51, 0.00, 0.00, 0.00, 0.00, 6725.71, 0.00, 0.00, 0.00, 0.00
25, 0.00, 162.47, 0.00, 0.00, 0.00, 0.00, 6724.32, 0.00, 0.00, 0.00, 0.00
26, 0.00, 160.13, 0.00, 0.00, 0.00, 0.00, 6714.67, 0.00, 0.00, 0.00, 0.00
27, 0.00, 149.62, 0.00, 0.00, 0.00, 0.00, 6712.94, 0.00, 0.00, 0.00, 0.00
28, 0.00, 147.16, 0.00, 0.00, 0.00, 0.00, 6717.12, 0.00, 0.00, 0.00, 0.00
29, 0.00, 163.59, 0.00, 0.00, 0.00, 0.00, 6730.53, 0.00, 0.00, 0.00, 0.00
30, 0.00, 163.68, 0.00, 0.00, 0.00, 0.00, 6730.98, 0.00, 0.00, 0.00, 0.00
31, 0.00, 152.80, 0.00, 0.00, 0.00, 0.00, 6722.91, 0.00, -0.80, -0.03, -0.54
32, 0.00, 155.14, 0.00, 0.00, 0.00, 0.00, 6725.48, 0.00, 0.00, 0.00, 0.00
33, 0.00, 152.55, 0.00, 0.00, 0.00, 0.00, 6725.39, 0.00, 0.00, 0.00, 0.00
34, 0.00, 153.47, 0.00, 0.00, 0.00, 0.00, 6723.43, 0.00, 0.00, 0.00, 0.00
35, 0.00, 155.26, 0.00, 0.00, 0.00, 0.00, 6726.33, 0.00, 0.00, 0.00, 0.00
36, 0.00, 152.73, 0.00, 0.00, 0.00, 0.00, 6729.35, 0.00, 0.00, 0.00, 0.00
37, 0.00, 147.28, 0.00, 0.00, 0.00, 0.00, 6730.71, 0.00, 0.00, 0.00, 0.00
38, 0.00, 146.76, 0.00, 0.00, 0.00, 0.00, 6731.27, 0.00, 0.00, 0.00, 0.00
39, 0.00, 150.85, 0.00, 0.00, 0.00, 0.00, 6729.73, 0.00, 0.00, 0.00, 0.00
40, 0.00, 152.98, 0.00, 0.00, 0.00, 0.00, 6733.44, 0.00, 0.00, 0.00, 0.00
41, 0.00, 151.95, 0.00, 0.00, 0.00, 0.00, 6738.69, 0.00, -0.80, -0.03, -0.55
42, 0.00, 156.48, 0.00, 0.00, 0.00, 0.00, 6735.68, 0.00, 0.00, 0.00, 0.00
43, 0.00, 150.56, 0.00, 0.00, 0.00, 0.00, 6730.53, 0.00, 0.00, 0.00, 0.00
44, 0.00, 143.50, 0.00, 0.00, 0.00, 0.00, 6731.81, 0.00, 0.00, 0.00, 0.00
45, 0.00, 144.97, 0.00, 0.00, 0.00, 0.00, 6736.35, 0.00, 0.00, 0.00, 0.00
46, 0.00, 153.60, 0.00, 0.00, 0.00, 0.00, 6738.34, 0.00, 0.00, 0.00, 0.00
47, 0.00, 149.78, 0.00, 0.00, 0.00, 0.00, 6733.82, 0.00, 0.00, 0.00, 0.00
48, 0.00, 144.35, 0.00, 0.00, 0.00, 0.00, 6736.68, 0.00, 0.00, 0.00, 0.00
49, 0.00, 149.18, 0.00, 0.00, 0.00, 0.00, 6740.39, 0.00, 0.00, 0.00, 0.00
50, 0.00, 152.91, 0.00, 0.00, 0.00, 0.00, 6741.04, 0.00, 0.00, 0.00, 0.00
51, 0.00, 143.07, 0.00, 0.00, 0.00, 0.00, 6736.50, 0.00, -0.81, -0.03, -0.55
52, 0.00, 144.71, 0.00, 0.00, 0.00, 0.00, 6736.57, 0.00, 0.00, 0.00, 0.00
53, 0.00, 144.41, 0.00, 0.00, 0.00, 0.00, 6736.10, 0.00, 0.00, 0.00, 0.00
54, 0.00, 142.43, 0.00, 0.00, 0.00, 0.00, 6740.57, 0.00, 0.00, 0.00, 0.00
55, 0.00, 139.27, 0.00, 0.00, 0.00, 0.00, 6740.68, 0.00, 0.00, 0.00, 0.00
56, 0.00, 136.41, 0.00, 0.00, 0.00, 0.00, 6736.95, 0.00, 0.00, 0.00, 0.00
57, 0.00, 146.94, 0.00, 0.00, 0.00, 0.00, 6743.36, 0.00, 0.00, 0.00, 0.00
58, 0.00, 146.31, 0.00, 0.00, 0.00, 0.00, 6744.48, 0.00, 0.00, 0.00, 0.00
59, 0.00, 145.93, 0.00, 0.00, 0.00, 0.00, 6741.71, 0.00, 0.00, 0.00, 0.00
60, 0.00, 147.21, 0.00, 0.00, 0.00, 0.00, 6744.95, 0.00, -0.80, -0.02, -0.55
61, 0.00, 145.04, 0.00, 0.00, 0.00, 0.00, 6747.19, 0.00, 0.00, 0.00, 0.00
62, 0.00, 146.07, 0.00, 0.00, 0.00, 0.00, 6750.96, 0.00, 0.00, 0.00, 0.00
63, 0.00, 151.75, 0.00, 0.00, 0.00, 0.00, 6752.64, 0.00, 0.00, 0.00, 0.00
64, 0.00, 153.11, 0.00, 0.00, 0.00, 0.00, 6754.67, 0.00, 0.00, 0.00, 0.00
65, 0.00, 154.38, 0.00, 0.00, 0.00, 0.00, 6761.74, 0.00, 0.00, 0.00, 0.00
66, 0.00, 147.28, 0.00, 0.00, 0.00, 0.00, 6758.36, 0.00, 0.00, 0.00, 0.00
67, 0.00, 149.02, 0.00, 0.00, 0.00, 0.00, 6754.07, 0.00, 0.00, 0.00, 0.00
68, 0.00, 152.84, 0.00, 0.00, 0.00, 0.00, 6759.46, 0.00, 0.00, 0.00, 0.00
69, 0.00, 145.62, 0.00, 0.00, 0.00, 0.00, 6768.00, 0.00, 0.00, 0.00, 0.00
70, 0.00, 145.89, 0.00, 0.00, 0.00, 0.00, 6776.58, 0.00, -0.81, -0.03, -0.54
71, 0.00, 146.49, 0.00, 0.00, 0.00, 0.00, 6773.32, 0.00, 0.00, 0.00, 0.00
72, 0.00, 155.97, 0.00, 0.00, 0.00, 0.00, 6775.19, 0.00, 0.00, 0.00, 0.00
73, 0.00, 160.22, 0.00, 0.00, 0.00, 0.00, 6780.20, 0.00, 0.00, 0.00, 0.00
74, 0.00, 156.51, 0.00, 0.00, 0.00, 0.00, 6781.92, 0.00, 0.00, 0.00, 0.00
75, 0.00, 147.23, 0.00, 0.00, 0.00, 0.00, 6781.18, 0.00, 0.00, 0.00, 0.00
76, 0.00, 153.58, 0.00, 0.00, 0.00, 0.00, 6781.16, 0.00, 0.00, 0.00, 0.00
77, 0.00, 156.60, 0.00, 0.00, 0.00, 0.00, 6781.05, 0.00, 0.00, 0.00, 0.00
78, 0.00, 160.55, 0.00, 0.00, 0.00, 0.00, 6784.58, 0.00, 0.00, 0.00, 0.00
79, 0.00, 159.32, 0.00, 0.00, 0.00, 0.00, 6789.23, 0.00, 0.00, 0.00, 0.00
80, 0.00, 156.53, 0.00, 0.00, 0.00, 0.00, 6783.15, 0.00, -0.81, -0.03, -0.55
81, 0.00, 165.67, 0.00, 0.00, 0.00, 0.00, 6787.08, 0.00, 0.00, 0.00, 0.00
82, 0.00, 168.78, 0.00, 0.00, 0.00, 0.00, 6797.63, 0.00, 0.00, 0.00, 0.00
83, 0.00, 155.99, 0.00, 0.00, 0.00, 0.00, 6794.28, 0.00, 0.00, 0.00, 0.00
84, 0.00, 152.42, 0.00, 0.00, 0.00, 0.00, 6786.53, 0.00, 0.00, 0.00, 0.00
85, 0.00, 153.69, 0.00, 0.00, 0.00, 0.00, 6786.28, 0.00, 0.00, 0.00, 0.00
86, 0.00, 155.43, 0.00, 0.00, 0.00, 0.00, 6792.61, 0.00, 0.00, 0.00, 0.00
87, 0.00, 151.68, 0.00, 0.00, 0.00, 0.00, 6792.07, 0.00, 0.00, 0.00, 0.00
88, 0.00, 151.84, 0.00, 0.00, 0.00, 0.00, 6786.01, 0.00, 0.00, 0.00, 0.00
89, 0.00, 150.54, 0.00, 0.00, 0.00, 0.00, 6783.82, 0.00, -0.81, -0.02, -0.54
90, 0.00, 141.78, 0.00, 0.00, 0.00, 0.00, 6784.69, 0.00, 0.00, 0.00, 0.00
91, 0.00, 144.82, 0.00, 0.00, 0.00, 0.00, 6780.65, 0.00, 0.00, 0.00, 0.00
92, 0.00, 144.53, 0.00, 0.00, 0.00, 0.00, 6783.71, 0.00, 0.00, 0.00, 0.00
93, 0.00, 145.33, 0.00, 0.00, 0.00, 0.00, 6780.42, 0.00, 0.00, 0.00, 0.00
94, 0.00, 139.59, 0.00, 0.00, 0.00, 0.00, 6780.07, 0.00, 0.00, 0.00, 0.00
95, 0.00, 124.45, 0.00, 0.00, 0.00, 0.00, 6777.63, 0.00, 0.00, 0.00, 0.00
96, 0.00, 116.25, 0.00, 0.00, 0.00, 0.00, 6773.27, 0.00, 0.00, 0.00, 0.00
97, 0.00, 124.54, 0.00, 0.00, 0.00, 0.00, 6780.20, 0.00, 0.00, 0.00, 0.00
98, 0.00, 120.54, 0.00, 0.00, 0.00, 0.00, 6784.18, 0.00, 0.00, 0.00, 0.00
99, 0.00, 115.60, 0.00, 0.00, 0.00, 0.00, 6783.33, 0.00, -0.81, -0.02, -0.55
100, 0.00, 113.03, 0.00, 0.00, 0.00, 0.00, 6777.47, 0.00, 0.00, 0.00, 0.00
101, 0.00, 109.95, 0.00, 0.00, 0.00, 0.00, 6773.36, 0.00, 0.00, 0.00, 0.00
102, 0.00, 104.61, 0.00, 0.00, 0.00, 0.00, 6772.31, 0.00, 0.00, 0.00, 0.00
103, 0.00, 97.88, 0.00, 0.00, 0.00, 0.00, 6780.27, 0.00, 0.00, 0.00, 0.00
104, 0.00, 105.37, 0.00, 0.00, 0.00, 0.00, 6787.91, 0.00, 0.00, 0.00, 0.00
105, 0.00, 119.05, 0.00, 0.00, 0.00, 0.00, 6782.99, 0.00, 0.00, 0.00, 0.00
106, 0.00, 125.01, 0.00, 0.00, 0.00, 0.00, 6779.82, 0.00, 0.00, 0.00, 0.00
107, 0.00, 127.27, 0.00, 0.00, 0.00, 0.00, 6787.89, 0.00, 0.00, 0.00, 0.00
108, 0.00, 122.78, 0.00, 0.00, 0.00, 0.00, 6797.79, 0.00, 0.00, 0.00, 0.00
109, 0.00, 133.40, 0.00, 0.00, 0.00, 0.00, 6796.58, 0.00, -0.81, -0.02, -0.55
110, 0.00, 162.36, 0.00, 0.00, 0.00, 0.00, 6797.30, 0.00, 0.00, 0.00, 0.00
111, 0.00, 181.18, 0.00, 0.00, 0.00, 0.00, 6807.85, 0.00, 0.00, 0.00, 0.00
112, 0.00, 196.78, 0.00, 0.00, 0.00, 0.00, 6816.34, 0.00, 0.00, 0.00, 0.00
113, 0.00, 213.12, 0.00, 0.00, 0.00, 0.00, 6814.49, 0.00, 0.00, 0.00, 0.00
114, 0.00, 222.53, 0.00, 0.00, 0.00, 0.00, 6806.96, 0.00, 0.00, 0.00, 0.00
115, 0.00, 229.55, 0.00, 0.00, 0.00, 0.00, 6812.05, 0.00, 0.00, 0.00, 0.00
116, 0.00, 248.15, 0.00, 0.00, 0.00, 0.00, 6823.34, 0.00, 0.00, 0.00, 0.00
117, 0.00, 268.67, 0.00, 0.00, 0.00, 0.00, 6823.63, 0.00, 0.00, 0.00, 0.00
118, 0.00, 269.23, 0.00, 0.00, 0.00, 0.00, 6817.37, 0.00, -0.81, -0.02, -0.54
119, 0.00, 273.94, 0.00, 0.00, 0.00, 0.00, 6815.81, 0.00, 0.00, 0.00, 0.00
120, 0.00, 274.81, 0.00, 0.00, 0.00, 0.00, 6821.28, 0.00, 0.00, 0.00, 0.00
121, 0.00, 269.67, 0.00, 0.00, 0.00, 0.00, 6820.37, 0.00, 0.00, 0.00, 0.00
122, 0.00, 265.34, 0.00, 0.00, 0.00, 0.00, 6814.85, 0.00, 0.00, 0.00, 0.00
123, 0.00, 269.43, 0.00, 0.00, 0.00, 0.00, 6815.49, 0.00, 0.00, 0.00, 0.00
124, 0.00, 282.55, 0.00, 0.00, 0.00, 0.00, 6816.34, 0.00, 0.00, 0.00, 0.00
125, 0.00, 279.53, 0.00, 0.00, 0.00, 0.00, 6816.12, 0.00, 0.00, 0.00, 0.00
126, 0.00, 281.99, 0.00, 0.00, 0.00, 0.00, 6818.20, 0.00, 0.00, 0.00, 0.00
127, 0.00, 280.36, 0.00, 0.00, 0.00, 0.00, 6820.57, 0.00, 0.00, 0.00, 0.00
128, 0.00, 282.79, 0.00, 0.00, 0.00, 0.00, 6824.84, 0.00, -0.81, -0.02, -0.54
129, 0.00, 284.11, 0.00, 0.00, 0.00, 0.00, 6827.47, 0.00, 0.00, 0.00, 0.00
130, 0.00, 285.50, 0.00, 0.00, 0.00, 0.00, 6827.03, 0.00, 0.00, 0.00, 0.00
131, 0.00, 283.73, 0.00, 0.00, 0.00, 0.00, 6821.73, 0.00, 0.00, 0.00, 0.00
132, 0.00, 281.79, 0.00, 0.00, 0.00, 0.00, 6824.97, 0.00, 0.00, 0.00, 0.00
133, 0.00, 278.32, 0.00, 0.00, 0.00, 0.00, 6827.52, 0.00, 0.00, 0.00, 0.00
134, 0.00, 278.01, 0.00, 0.00, 0.00, 0.00, 6827.21, 0.00, 0.00, 0.00, 0.00
135, 0.00, 277.43, 0.00, 0.00, 0.00, 0.00, 6829.62, 0.00, 0.00, 0.00, 0.00
136, 0.00, 287.13, 0.00, 0.00, 0.00, 0.00, 6832.06, 0.00, 0.00, 0.00, 0.00
137, 0.00, 285.34, 0.00, 0.00, 0.00, 0.00, 6831.12, 0.00, 0.00, 0.00, 0.00
138, 0.00, 283.73, 0.00, 0.00, 0.00, 0.00, 6825.15, 0.00, -0.81, -0.02, -0.54
139, 0.00, 278.75, 0.00, 0.00, 0.00, 0.00, 6819.85, 0.00, 0.00, 0.00, 0.00
140, 0.00, 277.21, 0.00, 0.00, 0.00, 0.00, 6826.24, 0.00, 0.00, 0.00, 0.00
141, 0.00, 285.63, 0.00, 0.00, 0.00, 0.00, 6822.83, 0.00, 0.00, 0.00, 0.00
142, 0.00, 295.65, 0.00, 0.00, 0.00, 0.00, 6824.77, 0.00, 0.00, 0.00, 0.00
143, 0.00, 293.28, 0.00, 0.00, 0.00, 0.00, 6826.98, 0.00, 0.00, 0.00, 0.00
144, 0.00, 288.29, 0.00, 0.00, 0.00, 0.00, 6826.89, 0.00, 0.00, 0.00, 0.00
145, 0.00, 282.12, 0.00, 0.00, 0.00, 0.00, 6829.42, 0.00, 0.00, 0.00, 0.00
146, 0.00, 286.04, 0.00, 0.00, 0.00, 0.00, 6829.91, 0.00, 0.00, 0.00, 0.00
147, 0.00, 288.16, 0.00, 0.00, 0.00, 0.00, 6826.92, 0.00, -0.80, -0.03, -0.54
148, 0.00, 293.95, 0.00, 0.00, 0.00, 0.00, 6831.34, 0.00, 0.00, 0.00, 0.00
149, 0.00, 295.91, 0.00, 0.00, 0.00, 0.00, 6831.97, 0.00, 0.00, 0.00, 0.00
150, 0.00, 290.55, 0.00, 0.00, 0.00, 0.00, 6831.56, 0.00, 0.00, 0.00, 0.00
151, 0.00, 290.75, 0.00, 0.00, 0.00, 0.00, 6835.70, 0.00, 0.00, 0.00, 0.00
152, 0.00, 287.09, 0.00, 0.00, 0.00, 0.00, 6833.60, 0.00, 0.00, 0.00, 0.00
153, 0.00, 285.97, 0.00, 0.00, 0.00, 0.00, 6839.43, 0.00, 0.00, 0.00, 0.00
154, 0.00, 288.14, 0.00, 0.00, 0.00, 0.00, 6845.83, 0.00, 0.00, 0.00, 0.00
155, 0.00, 297.90, 0.00, 0.00, 0.00, 0.00, 6848.33, 0.00, 0.00, 0.00, 0.00
156, 0.00, 293.66, 0.00, 0.00, 0.00, 0.00, 6845.80, 0.00, 0.00, 0.00, 0.00
157, 0.00, 295.40, 0.00, 0.00, 0.00, 0.00, 6843.90, 0.00, -0.80, -0.03, -0.54
158, 0.00, 296.74, 0.00, 0.00, 0.00, 0.00, 6847.23, 0.00, 0.00, 0.00, 0.00
159, 0.00, 293.79, 0.00, 0.00, 0.00, 0.00, 6837.24, 0.00, 0.00, 0.00, 0.00
160, 0.00, 288.92, 0.00, 0.00, 0.00, 0.00, 6837.91, 0.00, 0.00, 0.00, 0.00
161, 0.00, 298.87, 0.00, 0.00, 0.00, 0.00, 6846.88, 0.00, 0.00, 0.00, 0.00
162, 0.00, 306.04, 0.00, 0.00, 0.00, 0.00, 6847.26, 0.00, 0.00, 0.00, 0.00
163, 0.00, 297.66, 0.00, 0.00, 0.00, 0.00, 6842.16, 0.00, 0.00, 0.00, 0.00
164, 0.00, 289.59, 0.00, 0.00, 0.00, 0.00, 6831.56, 0.00, 0.00, 0.00, 0.00
165, 0.00, 283.91, 0.00, 0.00, 0.00, 0.00, 6839.10, 0.00, 0.00, 0.00, 0.00
166, 0.00, 282.55, 0.00, 0.00, 0.00, 0.00, 6841.71, 0.00, 0.00, 0.00, 0.00
167, 0.00, 283.96, 0.00, 0.00, 0.00, 0.00, 6837.15, 0.00, -0.81, -0.03, -0.55
168, 0.00, 286.33, 0.00, 0.00, 0.00, 0.00, 6841.13, 0.00, 0.00, 0.00, 0.00
169, 0.00, 285.95, 0.00, 0.00, 0.00, 0.00, 6848.08, 0.00, 0.00, 0.00, 0.00
170, 0.00, 293.30, 0.00, 0.00, 0.00, 0.00, 6851.52, 0.00, 0.00, 0.00, 0.00
171, 0.00, 286.19, 0.00, 0.00, 0.00, 0.00, 6849.16, 0.00, 0.00, 0.00, 0.00
172, 0.00, 281.83, 0.00, 0.00, 0.00, 0.00, 6848.86, 0.00, 0.00, 0.00, 0.00
173, 0.00, 284.72, 0.00, 0.00, 0.00, 0.00, 6850.85, 0.00, 0.00, 0.00, 0.00
174, 0.00, 290.82, 0.00, 0.00, 0.00, 0.00, 6857.02, 0.00, 0.00, 0.00, 0.00
175, 0.00, 293.12, 0.00, 0.00, 0.00, 0.00, 6858.16, 0.00, 0.00, 0.00, 0.00
176, 0.00, 290.66, 0.00, 0.00, 0.00, 0.00, 6855.01, 0.00, -0.81, -0.03, -0.55
177, 0.00, 290.64, 0.00, 0.00, 0.00, 0.00, 6853.92, 0.00, 0.00, 0.00, 0.00
178, 0.00, 286.35, 0.00, 0.00, 0.00, 0.00, 6853.09, 0.00, 0.00, 0.00, 0.00
179, 0.00, 284.38, 0.00, 0.00, 0.00, 0.00, 6853.36, 0.00, 0.00, 0.00, 0.00
180, 0.00, 288.83, 0.00, 0.00, 0.00, 0.00, 6858.83, 0.00, 0.00, 0.00, 0.00
181, 0.00, 295.89, 0.00, 0.00, 0.00, 0.00, 6863.66, 0.00, 0.00, 0.00, 0.00
182, 0.00, 290.66, 0.00, 0.00, 0.00, 0.00, 6862.05, 0.00, 0.00, 0.00, 0.00
183, 0.00, 287.31, 0.00, 0.00, 0.00, 0.00, 6863.01, 0.00, 0.00, 0.00, 0.00
184, 0.00, 287.13, 0.00, 0.00, 0.00, 0.00, 6861.38, 0.00, 0.00, 0.00, 0.00
185, 0.00, 283.40, 0.00, 0.00, 0.00, 0.00, 6853.63, 0.00, 0.00, 0.00, 0.00
186, 0.00, 285.63, 0.00, 0.00, 0.00, 0.00, 6858.86, 0.00, -0.81, -0.03, -0.55
187, 0.00, 284.16, 0.00, 0.00, 0.00, 0.00, 6864.96, 0.00, 0.00, 0.00, 0.00
188, 0.00, 285.30, 0.00, 0.00, 0.00, 0.00, 6862.03, 0.00, 0.00, 0.00, 0.00
189, 0.00, 292.11, 0.00, 0.00, 0.00, 0.00, 6858.32, 0.00, 0.00, 0.00, 0.00
190, 0.00, 288.87, 0.00, 0.00, 0.00, 0.00, 6860.76, 0.00, 0.00, 0.00, 0.00
191, 0.00, 282.88, 0.00, 0.00, 0.00, 0.00, 6858.45, 0.00, 0.00, 0.00, 0.00
192, 0.00, 280.36, 0.00, 0.00, 0.00, 0.00, 6858.01, 0.00, 0.00, 0.00, 0.00
193, 0.00, 278.10, 0.00, 0.00, 0.00, 0.00, 6856.35, 0.00, 0.00, 0.00, 0.00
194, 0.00, 282.64, 0.00, 0.00, 0.00, 0.00, 6855.62, 0.00, 0.00, 0.00, 0.00
195, 0.00, 277.85, 0.00, 0.00, 0.00, 0.00, 6857.43, 0.00, 0.00, 0.00, 0.00
196, 0.00, 279.58, 0.00, 0.00, 0.00, 0.00, 6857.38, 0.00, -0.81, -0.03, -0.54
197, 0.00, 281.03, 0.00, 0.00, 0.00, 0.00, 6862.14, 0.00, 0.00, 0.00, 0.00
198, 0.00, 278.64, 0.00, 0.00, 0.00, 0.00, 6860.58, 0.00, 0.00, 0.00, 0.00
199, 0.00, 287.73, 0.00, 0.00, 0.00, 0.00, 6856.51, 0.00, 0.00, 0.00, 0.00
200, 0.00, 298.87, 0.00, 0.00, 0.00, 0.00, 6853.11, 0.00, 0.00, 0.00, 0.00
201, 0.00, 307.02, 0.00, 0.00, 0.00, 0.00, 6854.77, 0.00, 0.00, 0.00, 0.00
202, 0.00, 289.68, 0.00, 0.00, 0.00, 0.00, 6862.99, 0.00, 0.00, 0.00, 0.00
203, 0.00, 288.74, 0.00, 0.00, 0.00, 0.00, 6866.19, 0.00, 0.00, 0.00, 0.00
204, 0.00, 306.73, 0.00, 0.00, 0.00, 0.00, 6870.84, 0.00, 0.00, 0.00, 0.00
205, 0.00, 315.67, 0.00, 0.00, 0.00, 0.00, 6869.58, 0.00, -0.80, -0.03, -0.55
206, 0.00, 332.48, 0.00, 0.00, 0.00, 0.00, 6869.27, 0.00, 0.00, 0.00, 0.00
207, 0.00, 336.57, 0.00, 0.00, 0.00, 0.00, 6877.81, 0.00, 0.00, 0.00, 0.00
208, 0.00, 332.30, 0.00, 0.00, 0.00, 0.00, 6874.66, 0.00, 0.00, 0.00, 0.00
209, 0.00, 333.85, 0.00, 0.00, 0.00, 0.00, 6870.99, 0.00, 0.00, 0.00, 0.00
210, 0.00, 328.75, 0.00, 0.00, 0.00, 0.00, 6868.38, 0.00, 0.00, 0.00, 0.00
211, 0.00, 330.54, 0.00, 0.00, 0.00, 0.00, 6874.32, 0.00, 0.00, 0.00, 0.00
212, 0.00, 326.36, 0.00, 0.00, 0.00, 0.00, 6874.37, 0.00, 0.00, 0.00, 0.00
213, 0.00, 326.76, 0.00, 0.00, 0.00, 0.00, 6876.29, 0.00, 0.00, 0.00, 0.00
214, 0.00, 332.59, 0.00, 0.00, 0.00, 0.00, 6881.07, 0.00, 0.00, 0.00, 0.00
215, 0.00, 332.30, 0.00, 0.00, 0.00, 0.00, 6880.98, 0.00, -0.80, -0.03, -0.55
216, 0.00, 332.62, 0.00, 0.00, 0.00, 0.00, 6881.32, 0.00, 0.00, 0.00, 0.00
217, 0.00, 334.70, 0.00, 0.00, 0.00, 0.00, 6875.87, 0.00, 0.00, 0.00, 0.00
218, 0.00, 337.42, 0.00, 0.00, 0.00, 0.00, 6872.13, 0.00, 0.00, 0.00, 0.00
219, 0.00, 337.98, 0.00, 0.00, 0.00, 0.00, 6871.98, 0.00, 0.00, 0.00, 0.00
220, 0.00, 338.20, 0.00, 0.00, 0.00, 0.00, 6874.55, 0.00, 0.00, 0.00, 0.00
221, 0.00, 334.43, 0.00, 0.00, 0.00, 0.00, 6881.65, 0.00, 0.00, 0.00, 0.00
222, 0.00, 330.25, 0.00, 0.00, 0.00, 0.00, 6877.77, 0.00, 0.00, 0.00, 0.00
223, 0.00, 332.15, 0.00, 0.00, 0.00, 0.00, 6878.62, 0.00, 0.00, 0.00, 0.00
224, 0.00, 334.49, 0.00, 0.00, 0.00, 0.00, 6886.08, 0.00, 0.00, 0.00, 0.00
225, 0.00, 337.58, 0.00, 0.00, 0.00, 0.00, 6887.33, 0.00, -0.80, -0.03, -0.55
226, 0.00, 329.71, 0.00, 0.00, 0.00, 0.00, 6875.84, 0.00, 0.00, 0.00, 0.00
227, 0.00, 324.66, 0.00, 0.00, 0.00, 0.00, 6877.59, 0.00, 0.00, 0.00, 0.00
228, 0.00, 330.90, 0.00, 0.00, 0.00, 0.00, 6879.93, 0.00, 0.00, 0.00, 0.00
229, 0.00, 336.01, 0.00, 0.00, 0.00, 0.00, 6881.97, 0.00, 0.00, 0.00, 0.00
230, 0.00, 333.82, 0.00, 0.00, 0.00, 0.00, 6882.79, 0.00, 0.00, 0.00, 0.00
231, 0.00, 332.12, 0.00, 0.00, 0.00, 0.00, 6882.75, 0.00, 0.00, 0.00, 0.00
232, 0.00, 335.45, 0.00, 0.00, 0.00, 0.00, 6887.53, 0.00, 0.00, 0.00, 0.00
233, 0.00, 336.30, 0.00, 0.00, 0.00, 0.00, 6891.67, 0.00, 0.00, 0.00, 0.00
234, 0.00, 330.90, 0.00, 0.00, 0.00, 0.00, 6890.15, 0.00, -0.81, -0.03, -0.55
235, 0.00, 323.88, 0.00, 0.00, 0.00, 0.00, 6889.17, 0.00, 0.00, 0.00, 0.00
236, 0.00, 330.67, 0.00, 0.00, 0.00, 0.00, 6892.61, 0.00, 0.00, 0.00, 0.00
237, 0.00, 326.80, 0.00, 0.00, 0.00, 0.00, 6895.00, 0.00, 0.00, 0.00, 0.00
238, 0.00, 327.14, 0.00, 0.00, 0.00, 0.00, 6897.97, 0.00, 0.00, 0.00, 0.00
239, 0.00, 328.30, 0.00, 0.00, 0.00, 0.00, 6899.09, 0.00, 0.00, 0.00, 0.00
240, 0.00, 323.88, 0.00, 0.00, 0.00, 0.00, 6900.94, 0.00, 0.00, 0.00, 0.00
241, 0.00, 330.83, 0.00, 0.00, 0.00, 0.00, 6900.85, 0.00, 0.00, 0.00, 0.00
242, 0.00, 329.62, 0.00, 0.00, 0.00, 0.00, 6898.24, 0.00, 0.00, 0.00, 0.00
243, 0.00, 326.13, 0.00, 0.00, 0.00, 0.00, 6894.62, 0.00, 0.00, 0.00, 0.00
244, 0.00, 330.43, 0.00, 0.00, 0.00, 0.00, 6890.33, 0.00, -0.80, -0.03, -0.54
245, 0.00, 336.42, 0.00, 0.00, 0.00, 0.00, 6896.05, 0.00, 0.00, 0.00, 0.00
246, 0.00, 314.47, 0.00, 0.00, 0.00, 0.00, 6899.92, 0.00, 0.00, 0.00, 0.00
247, 0.00, 275.15, 0.00, 0.00, 0.00, 0.00, 6898.58, 0.00, 0.00, 0.00, 0.00
248, 0.00, 255.61, 0.00, 0.00, 0.00, 0.00, 6897.55, 0.00, 0.00, 0.00, 0.00
249, 0.00, 233.31, 0.00, 0.00, 0.00, 0.00, 6899.27, 0.00, 0.00, 0.00, 0.00
250, 0.00, 215.98, 0.00, 0.00, 0.00, 0.00, 6894.24, 0.00, 0.00, 0.00, 0.00
251, 0.00, 185.83, 0.00, 0.00, 0.00, 0.00, 6881.99, 0.00, 0.00, 0.00, 0.00
252, 0.00, 162.07, 0.00, 0.00, 0.00, 0.00, 6880.56, 0.00, 0.00, 0.00, 0.00
253, 0.00, 156.64, 0.00, 0.00, 0.00, 0.00, 6886.17, 0.00, 0.00, 0.00, 0.00
254, 0.00, 144.15, 0.00, 0.00, 0.00, 0.00, 6888.02, 0.00, -0.81, -0.03, -0.54
255, 0.00, 143.50, 0.00, 0.00, 0.00, 0.00, 6890.13, 0.00, 0.00, 0.00, 0.00
0, 0.00, 151.46, 0.00, 0.00, 0.00, 0.00, 6893.84, 0.00, 0.00, 0.00, 0.00
1, 0.00, 149.38, 0.00, 0.00, 0.00, 0.00, 6890.01, 0.00, 0.00, 0.00, 0.00
2, 0.00, 151.12, 0.00, 0.00, 0.00, 0.00, 6895.69, 0.00, 0.00, 0.00, 0.00
3, 0.00, 155.84, 0.00, 0.00, 0.00, 0.00, 6892.94, 0.00, 0.00, 0.00, 0.00
4, 0.00, 156.08, 0.00, 0.00, 0.00, 0.00, 6886.44, 0.00, 0.00, 0.00, 0.00
5, 0.00, 161.00, 0.00, 0.00, 0.00, 0.00, 6897.99, 0.00, 0.00, 0.00, 0.00
6, 0.00, 159.97, 0.00, 0.00, 0.00, 0.00, 6901.86, 0.00, 0.00, 0.00, 0.00
7, 0.00, 154.65, 0.00, 0.00, 0.00, 0.00, 6895.80, 0.00, -0.80, -0.03, -0.55
8, 0.00, 147.52, 0.00, 0.00, 0.00, 0.00, 6893.17, 0.00, 0.00, 0.00, 0.00
9, 0.00, 151.63, 0.00, 0.00, 0.00, 0.00, 6894.04, 0.00, 0.00, 0.00, 0.00
10, 0.00, 147.34, 0.00, 0.00, 0.00, 0.00, 6893.75, 0.00, 0.00, 0.00, 0.00
11, 0.00, 131.36, 0.00, 0.00, 0.00, 0.00, 6894.24, 0.00, 0.00, 0.00, 0.00
12, 0.00, 155.57, 0.00, 0.00, 0.00, 0.00, 6895.62, 0.00, 0.00, 0.00, 0.00
13, 0.00, 160.22, 0.00, 0.00, 0.00, 0.00, 6896.72, 0.00, 0.00, 0.00, 0.00
14, 0.00, 151.05, 0.00, 0.00, 0.00, 0.00, 6899.33, 0.00, 0.00, 0.00, 0.00
15, 0.00, 152.84, 0.00, 0.00, 0.00, 0.00, 6898.04, 0.00, 0.00, 0.00, 0.00
16, 0.00, 150.23, 0.00, 0.00, 0.00, 0.00, 6891.87, 0.00, 0.00, 0.00, 0.00
17, 0.00, 150.40, 0.00, 0.00, 0.00, 0.00, 6893.99, 0.00, -0.80, -0.02, -0.55
18, 0.00, 151.52, 0.00, 0.00, 0.00, 0.00, 6902.02, 0.00, 0.00, 0.00, 0.00
19, 0.00, 145.51, 0.00, 0.00, 0.00, 0.00, 6900.10, 0.00, 0.00, 0.00, 0.00
20, 0.00, 158.50, 0.00, 0.00, 0.00, 0.00, 6901.57, 0.00, 0.00, 0.00, 0.00
21, 0.00, 158.54, 0.00, 0.00, 0.00, 0.00, 6897.75, 0.00, 0.00, 0.00, 0.00
22, 0.00, 153.42, 0.00, 0.00, 0.00, 0.00, 6898.11, 0.00, 0.00, 0.00, 0.00
23, 0.00, 145.06, 0.00, 0.00, 0.00, 0.00, 6891.06, 0.00, 0.00, 0.00, 0.00
24, 0.00, 145.76, 0.00, 0.00, 0.00, 0.00, 6884.49, 0.00, 0.00, 0.00, 0.00
25, 0.00, 148.84, 0.00, 0.00, 0.00, 0.00, 6882.26, 0.00, 0.00, 0.00, 0.00
26, 0.00, 149.67, 0.00, 0.00, 0.00, 0.00, 6890.01, 0.00, 0.00, 0.00, 0.00
27, 0.00, 146.76, 0.00, 0.00, 0.00, 0.00, 6901.57, 0.00, -0.80, -0.02, -0.54
28, 0.00, 145.98, 0.00, 0.00, 0.00, 0.00, 6902.31, 0.00, 0.00, 0.00, 0.00
29, 0.00, 143.63, 0.00, 0.00, 0.00, 0.00, 6897.88, 0.00, 0.00, 0.00, 0.00
30, 0.00, 160.22, 0.00, 0.00, 0.00, 0.00, 6888.07, 0.00, 0.00, 0.00, 0.00
31, 0.00, 188.72, 0.00, 0.00, 0.00, 0.00, 6881.48, 0.00, 0.00, 0.00, 0.00
32, 0.00, 165.76, 0.00, 0.00, 0.00, 0.00, 6890.10, 0.00, 0.00, 0.00, 0.00
33, 0.00, 147.30, 0.00, 0.00, 0.00, 0.00, 6904.81, 0.00, 0.00, 0.00, 0.00
34, 0.00, 179.80, 0.00, 0.00, 0.00, 0.00, 6918.20, 0.00, 0.00, 0.00, 0.00
35, 0.00, 199.36, 0.00, 0.00, 0.00, 0.00, 6923.79, 0.00, 0.00, 0.00, 0.00
36, 0.00, 214.53, 0.00, 0.00, 0.00, 0.00, 6922.42, 0.00, -0.81, -0.02, -0.55
37, 0.00, 217.30, 0.00, 0.00, 0.00, 0.00, 6930.11, 0.00, 0.00, 0.00, 0.00
38, 0.00, 217.35, 0.00, 0.00, 0.00, 0.00, 6933.98, 0.00, 0.00, 0.00, 0.00
39, 0.00, 229.04, 0.00, 0.00, 0.00, 0.00, 6940.33, 0.00, 0.00, 0.00, 0.00
40, 0.00, 232.23, 0.00, 0.00, 0.00, 0.00, 6936.17, 0.00, 0.00, 0.00, 0.00
41, 0.00, 236.62, 0.00, 0.00, 0.00, 0.00, 6937.82, 0.00, 0.00, 0.00, 0.00
42, 0.00, 250.43, 0.00, 0.00, 0.00, 0.00, 6938.74, 0.00, 0.00, 0.00, 0.00
43, 0.00, 270.21, 0.00, 0.00, 0.00, 0.00, 6939.99, 0.00, 0.00, 0.00, 0.00
44, 0.00, 265.70, 0.00, 0.00, 0.00, 0.00, 6934.81, 0.00, 0.00, 0.00, 0.00
45, 0.00, 263.84, 0.00, 0.00, 0.00, 0.00, 6937.56, 0.00, 0.00, 0.00, 0.00
46, 0.00, 260.02, 0.00, 0.00, 0.00, 0.00, 6935.10, 0.00, -0.81, -0.02, -0.55
47, 0.00, 257.13, 0.00, 0.00, 0.00, 0.00, 6936.53, 0.00, 0.00, 0.00, 0.00
48, 0.00, 257.85, 0.00, 0.00, 0.00, 0.00, 6938.88, 0.00, 0.00, 0.00, 0.00
49, 0.00, 268.18, 0.00, 0.00, 0.00, 0.00, 6942.50, 0.00, 0.00, 0.00, 0.00
50, 0.00, 277.32, 0.00, 0.00, 0.00, 0.00, 6942.18, 0.00, 0.00, 0.00, 0.00
51, 0.00, 268.80, 0.00, 0.00, 0.00, 0.00, 6942.09, 0.00, 0.00, 0.00, 0.00
52, 0.00, 259.73, 0.00, 0.00, 0.00, 0.00, 6944.78, 0.00, 0.00, 0.00, 0.00
53, 0.00, 262.79, 0.00, 0.00, 0.00, 0.00, 6942.70, 0.00, 0.00, 0.00, 0.00
54, 0.00, 262.92, 0.00, 0.00, 0.00, 0.00, 6937.00, 0.00, 0.00, 0.00, 0.00
55, 0.00, 255.73, 0.00, 0.00, 0.00, 0.00, 6933.02, 0.00, -0.81, -0.02, -0.55
56, 0.00, 257.34, 0.00, 0.00, 0.00, 0.00, 6944.19, 0.00, 0.00, 0.00, 0.00
57, 0.00, 250.47, 0.00, 0.00, 0.00, 0.00, 6950.30, 0.00, 0.00, 0.00, 0.00
58, 0.00, 254.23, 0.00, 0.00, 0.00, 0.00, 6943.97, 0.00, 0.00, 0.00, 0.00
59, 0.00, 260.58, 0.00, 0.00, 0.00, 0.00, 6946.68, 0.00, 0.00, 0.00, 0.00
60, 0.00, 252.53, 0.00, 0.00, 0.00, 0.00, 6946.74, 0.00, 0.00, 0.00, 0.00
61, 0.00, 258.99, 0.00, 0.00, 0.00, 0.00, 6946.74, 0.00, 0.00, 0.00, 0.00
62, 0.00, 269.52, 0.00, 0.00, 0.00, 0.00, 6947.59, 0.00, 0.00, 0.00, 0.00
63, 0.00, 264.85, 0.00, 0.00, 0.00, 0.00, 6943.55, 0.00, 0.00, 0.00, 0.00
64, 0.00, 256.06, 0.00, 0.00, 0.00, 0.00, 6945.31, 0.00, 0.00, 0.00, 0.00
65, 0.00, 264.69, 0.00, 0.00, 0.00, 0.00, 6952.53, 0.00, -0.81, -0.02, -0.55
66, 0.00, 273.29, 0.00, 0.00, 0.00, 0.00, 6946.90, 0.00, 0.00, 0.00, 0.00
67, 0.00, 269.58, 0.00, 0.00, 0.00, 0.00, 6939.28, 0.00, 0.00, 0.00, 0.00
68, 0.00, 262.39, 0.00, 0.00, 0.00, 0.00, 6939.86, 0.00, 0.00, 0.00, 0.00
69, 0.00, 263.66, 0.00, 0.00, 0.00, 0.00, 6939.90, 0.00, 0.00, 0.00, 0.00
70, 0.00, 273.43, 0.00, 0.00, 0.00, 0.00, 6937.67, 0.00, 0.00, 0.00, 0.00
71, 0.00, 267.30, 0.00, 0.00, 0.00, 0.00, 6939.68, 0.00, 0.00, 0.00, 0.00
72, 0.00, 258.63, 0.00, 0.00, 0.00, 0.00, 6944.84, 0.00, 0.00, 0.00, 0.00
73, 0.00, 261.27, 0.00, 0.00, 0.00, 0.00, 6948.67, 0.00, 0.00, 0.00, 0.00
74, 0.00, 257.13, 0.00, 0.00, 0.00, 0.00, 6947.61, 0.00, 0.00, 0.00, 0.00
75, 0.00, 248.86, 0.00, 0.00, 0.00, 0.00, 6946.88, 0.00, -0.81, -0.01, -0.55
76, 0.00, 259.93, 0.00, 0.00, 0.00, 0.00, 6955.95, 0.00, 0.00, 0.00, 0.00
77, 0.00, 249.38, 0.00, 0.00, 0.00, 0.00, 6956.18, 0.00, 0.00, 0.00, 0.00
78, 0.00, 250.88, 0.00, 0.00, 0.00, 0.00, 6951.01, 0.00, 0.00, 0.00, 0.00
79, 0.00, 257.58, 0.00, 0.00, 0.00, 0.00, 6948.11, 0.00, 0.00, 0.00, 0.00
80, 0.00, 256.46, 0.00, 0.00, 0.00, 0.00, 6951.86, 0.00, 0.00, 0.00, 0.00
81, 0.00, 254.63, 0.00, 0.00, 0.00, 0.00, 6957.29, 0.00, 0.00, 0.00, 0.00
82, 0.00, 249.62, 0.00, 0.00, 0.00, 0.00, 6962.08, 0.00, 0.00, 0.00, 0.00
83, 0.00, 247.50, 0.00, 0.00, 0.00, 0.00, 6961.58, 0.00, 0.00, 0.00, 0.00
84, 0.00, 249.51, 0.00, 0.00, 0.00, 0.00, 6955.15, 0.00, -0.81, -0.02, -0.55
85, 0.00, 247.17, 0.00, 0.00, 0.00, 0.00, 6955.71, 0.00, 0.00, 0.00, 0.00
86, 0.00, 252.73, 0.00, 0.00, 0.00, 0.00, 6967.02, 0.00, 0.00, 0.00, 0.00
87, 0.00, 257.45, 0.00, 0.00, 0.00, 0.00, 6968.29, 0.00, 0.00, 0.00, 0.00
88, 0.00, 254.99, 0.00, 0.00, 0.00, 0.00, 6966.99, 0.00, 0.00, 0.00, 0.00
89, 0.00, 249.58, 0.00, 0.00, 0.00, 0.00, 6964.36, 0.00, 0.00, 0.00, 0.00
90, 0.00, 252.37, 0.00, 0.00, 0.00, 0.00, 6970.91, 0.00, 0.00, 0.00, 0.00
91, 0.00, 249.11, 0.00, 0.00, 0.00, 0.00, 6963.86, 0.00, 0.00, 0.00, 0.00
92, 0.00, 249.76, 0.00, 0.00, 0.00, 0.00, 6961.03, 0.00, 0.00, 0.00, 0.00
93, 0.00, 252.82, 0.00, 0.00, 0.00, 0.00, 6966.06, 0.00, 0.00, 0.00, 0.00
94, 0.00, 248.77, 0.00, 0.00, 0.00, 0.00, 6966.86, 0.00, -0.81, -0.01, -0.54
95, 0.00, 250.14, 0.00, 0.00, 0.00, 0.00, 6965.05, 0.00, 0.00, 0.00, 0.00
96, 0.00, 251.77, 0.00, 0.00, 0.00, 0.00, 6964.49, 0.00, 0.00, 0.00, 0.00
97, 0.00, 250.29, 0.00, 0.00, 0.00, 0.00, 6972.38, 0.00, 0.00, 0.00, 0.00
98, 0.00, 244.10, 0.00, 0.00, 0.00, 0.00, 6976.11, 0.00, 0.00, 0.00, 0.00
99, 0.00, 235.77, 0.00, 0.00, 0.00, 0.00, 6974.03, 0.00, 0.00, 0.00, 0.00
100, 0.00, 242.90, 0.00, 0.00, 0.00, 0.00, 6971.46, 0.00, 0.00, 0.00, 0.00
101, 0.00, 245.06, 0.00, 0.00, 0.00, 0.00, 6966.86, 0.00, 0.00, 0.00, 0.00
102, 0.00, 243.84, 0.00, 0.00, 0.00, 0.00, 6972.09, 0.00, 0.00, 0.00, 0.00
103, 0.00, 238.98, 0.00, 0.00, 0.00, 0.00, 6970.70, 0.00, 0.00, 0.00, 0.00
104, 0.00, 243.66, 0.00, 0.00, 0.00, 0.00, 6974.37, 0.00, -0.82, -0.01, -0.54
105, 0.00, 239.45, 0.00, 0.00, 0.00, 0.00, 6980.78, 0.00, 0.00, 0.00, 0.00
106, 0.00, 231.09, 0.00, 0.00, 0.00, 0.00, 6982.93, 0.00, 0.00, 0.00, 0.00
107, 0.00, 241.96, 0.00, 0.00, 0.00, 0.00, 6980.32, 0.00, 0.00, 0.00, 0.00
108, 0.00, 244.26, 0.00, 0.00, 0.00, 0.00, 6973.81, 0.00, 0.00, 0.00, 0.00
109, 0.00, 240.73, 0.00, 0.00, 0.00, 0.00, 6977.41, 0.00, 0.00, 0.00, 0.00
110, 0.00, 232.48, 0.00, 0.00, 0.00, 0.00, 6982.93, 0.00, 0.00, 0.00, 0.00
111, 0.00, 226.78, 0.00, 0.00, 0.00, 0.00, 6983.15, 0.00, 0.00, 0.00, 0.00
112, 0.00, 231.70, 0.00, 0.00, 0.00, 0.00, 6983.31, 0.00, 0.00, 0.00, 0.00
113, 0.00, 232.93, 0.00, 0.00, 0.00, 0.00, 6982.22, 0.00, -0.82, -0.01, -0.55
114, 0.00, 232.23, 0.00, 0.00, 0.00, 0.00, 6981.03, 0.00, 0.00, 0.00, 0.00
115, 0.00, 226.83, 0.00, 0.00, 0.00, 0.00, 6981.37, 0.00, 0.00, 0.00, 0.00
116, 0.00, 229.35, 0.00, 0.00, 0.00, 0.00, 6982.71, 0.00, 0.00, 0.00, 0.00
117, 0.00, 230.98, 0.00, 0.00, 0.00, 0.00, 6979.85, 0.00, 0.00, 0.00, 0.00
118, 0.00, 226.76, 0.00, 0.00, 0.00, 0.00, 6978.59, 0.00, 0.00, 0.00, 0.00
119, 0.00, 227.61, 0.00, 0.00, 0.00, 0.00, 6978.44, 0.00, 0.00, 0.00, 0.00
120, 0.00, 240.91, 0.00, 0.00, 0.00, 0.00, 6978.93, 0.00, 0.00, 0.00, 0.00
121, 0.00, 241.38, 0.00, 0.00, 0.00, 0.00, 6981.86, 0.00, 0.00, 0.00, 0.00
122, 0.00, 235.19, 0.00, 0.00, 0.00, 0.00, 6987.94, 0.00, 0.00, 0.00, 0.00
123, 0.00, 234.56, 0.00, 0.00, 0.00, 0.00, 6982.08, 0.00, -0.81, -0.01, -0.55
124, 0.00, 240.73, 0.00, 0.00, 0.00, 0.00, 6976.16, 0.00, 0.00, 0.00, 0.00
125, 0.00, 246.29, 0.00, 0.00, 0.00, 0.00, 6973.52, 0.00, 0.00, 0.00, 0.00
126, 0.00, 237.96, 0.00, 0.00, 0.00, 0.00, 6978.73, 0.00, 0.00, 0.00, 0.00
127, 0.00, 241.09, 0.00, 0.00, 0.00, 0.00, 6989.81, 0.00, 0.00, 0.00, 0.00
128, 0.00, 240.17, 0.00, 0.00, 0.00, 0.00, 6990.37, 0.00, 0.00, 0.00, 0.00
129, 0.00, 255.77, 0.00, 0.00, 0.00, 0.00, 6996.41, 0.00, 0.00, 0.00, 0.00
130, 0.00, 247.90, 0.00, 0.00, 0.00, 0.00, 6992.14, 0.00, 0.00, 0.00, 0.00
131, 0.00, 238.92, 0.00, 0.00, 0.00, 0.00, 6992.47, 0.00, 0.00, 0.00, 0.00
132, 0.00, 233.64, 0.00, 0.00, 0.00, 0.00, 6996.07, 0.00, 0.00, 0.00, 0.00
133, 0.00, 222.74, 0.00, 0.00, 0.00, 0.00, 6988.63, 0.00, -0.81, -0.01, -0.54
134, 0.00, 237.84, 0.00, 0.00, 0.00, 0.00, 6986.91, 0.00, 0.00, 0.00, 0.00
135, 0.00, 241.13, 0.00, 0.00, 0.00, 0.00, 6993.41, 0.00, 0.00, 0.00, 0.00
136, 0.00, 242.23, 0.00, 0.00, 0.00, 0.00, 6992.14, 0.00, 0.00, 0.00, 0.00
137, 0.00, 238.72, 0.00, 0.00, 0.00, 0.00, 6989.06, 0.00, 0.00, 0.00, 0.00
138, 0.00, 236.55, 0.00, 0.00, 0.00, 0.00, 6998.87, 0.00, 0.00, 0.00, 0.00
139, 0.00, 234.34, 0.00, 0.00, 0.00, 0.00, 7002.78, 0.00, 0.00, 0.00, 0.00
140, 0.00, 236.24, 0.00, 0.00, 0.00, 0.00, 6997.57, 0.00, 0.00, 0.00, 0.00
141, 0.00, 229.08, 0.00, 0.00, 0.00, 0.00, 6991.09, 0.00, 0.00, 0.00, 0.00
142, 0.00, 229.62, 0.00, 0.00, 0.00, 0.00, 6989.23, 0.00, -0.81, -0.02, -0.54
143, 0.00, 235.21, 0.00, 0.00, 0.00, 0.00, 6994.24, 0.00, 0.00, 0.00, 0.00
144, 0.00, 225.84, 0.00, 0.00, 0.00, 0.00, 6996.32, 0.00, 0.00, 0.00, 0.00
145, 0.00, 230.98, 0.00, 0.00, 0.00, 0.00, 6994.82, 0.00, 0.00, 0.00, 0.00
146, 0.00, 230.20, 0.00, 0.00, 0.00, 0.00, 6993.37, 0.00, 0.00, 0.00, 0.00
147, 0.00, 231.14, 0.00, 0.00, 0.00, 0.00, 6994.26, 0.00, 0.00, 0.00, 0.00
148, 0.00, 232.03, 0.00, 0.00, 0.00, 0.00, 6994.75, 0.00, 0.00, 0.00, 0.00
149, 0.00, 231.07, 0.00, 0.00, 0.00, 0.00, 6990.31, 0.00, 0.00, 0.00, 0.00
150, 0.00, 222.13, 0.00, 0.00, 0.00, 0.00, 6991.40, 0.00, 0.00, 0.00, 0.00
151, 0.00, 224.43, 0.00, 0.00, 0.00, 0.00, 6997.21, 0.00, 0.00, 0.00, 0.00
152, 0.00, 228.70, 0.00, 0.00, 0.00, 0.00, 6996.48, 0.00, -0.81, -0.02, -0.54
153, 0.00, 224.52, 0.00, 0.00, 0.00, 0.00, 6997.86, 0.00, 0.00, 0.00, 0.00
154, 0.00, 229.24, 0.00, 0.00, 0.00, 0.00, 7000.50, 0.00, 0.00, 0.00, 0.00
155, 0.00, 227.50, 0.00, 0.00, 0.00, 0.00, 7000.21, 0.00, 0.00, 0.00, 0.00
156, 0.00, 232.15, 0.00, 0.00, 0.00, 0.00, 7002.42, 0.00, 0.00, 0.00, 0.00
157, 0.00, 225.95, 0.00, 0.00, 0.00, 0.00, 7003.74, 0.00, 0.00, 0.00, 0.00
158, 0.00, 218.35, 0.00, 0.00, 0.00, 0.00, 7002.71, 0.00, 0.00, 0.00, 0.00
159, 0.00, 221.48, 0.00, 0.00, 0.00, 0.00, 7004.52, 0.00, 0.00, 0.00, 0.00
160, 0.00, 218.56, 0.00, 0.00, 0.00, 0.00, 6998.93, 0.00, 0.00, 0.00, 0.00
161, 0.00, 211.00, 0.00, 0.00, 0.00, 0.00, 6992.99, 0.00, 0.00, 0.00, 0.00
162, 0.00, 211.74, 0.00, 0.00, 0.00, 0.00, 6992.83, 0.00, -0.81, -0.02, -0.54
163, 0.00, 219.70, 0.00, 0.00, 0.00, 0.00, 6999.69, 0.00, 0.00, 0.00, 0.00
164, 0.00, 215.87, 0.00, 0.00, 0.00, 0.00, 7012.50, 0.00, 0.00, 0.00, 0.00
165, 0.00, 210.62, 0.00, 0.00, 0.00, 0.00, 7013.84, 0.00, 0.00, 0.00, 0.00
166, 0.00, 210.29, 0.00, 0.00, 0.00, 0.00, 7007.47, 0.00, 0.00, 0.00, 0.00
167, 0.00, 214.93, 0.00, 0.00, 0.00, 0.00, 7001.97, 0.00, 0.00, 0.00, 0.00
168, 0.00, 211.58, 0.00, 0.00, 0.00, 0.00, 7001.59, 0.00, 0.00, 0.00, 0.00
169, 0.00, 208.54, 0.00, 0.00, 0.00, 0.00, 7003.43, 0.00, 0.00, 0.00, 0.00
170, 0.00, 210.49, 0.00, 0.00, 0.00, 0.00, 7002.20, 0.00, 0.00, 0.00, 0.00
171, 0.00, 216.12, 0.00, 0.00, 0.00, 0.00, 6999.47, 0.00, -0.81, -0.02, -0.54
172, 0.00, 218.29, 0.00, 0.00, 0.00, 0.00, 7009.48, 0.00, 0.00, 0.00, 0.00
173, 0.00, 210.62, 0.00, 0.00, 0.00, 0.00, 7012.61, 0.00, 0.00, 0.00, 0.00
174, 0.00, 209.30, 0.00, 0.00, 0.00, 0.00, 7007.27, 0.00, 0.00, 0.00, 0.00
175, 0.00, 216.01, 0.00, 0.00, 0.00, 0.00, 7006.20, 0.00, 0.00, 0.00, 0.00
176, 0.00, 215.67, 0.00, 0.00, 0.00, 0.00, 7005.30, 0.00, 0.00, 0.00, 0.00
177, 0.00, 225.95, 0.00, 0.00, 0.00, 0.00, 7004.57, 0.00, 0.00, 0.00, 0.00
178, 0.00, 228.39, 0.00, 0.00, 0.00, 0.00, 7003.27, 0.00, 0.00, 0.00, 0.00
179, 0.00, 207.54, 0.00, 0.00, 0.00, 0.00, 7006.33, 0.00, 0.00, 0.00, 0.00
180, 0.00, 185.01, 0.00, 0.00, 0.00, 0.00, 7006.80, 0.00, 0.00, 0.00, 0.00
181, 0.00, 165.81, 0.00, 0.00, 0.00, 0.00, 6999.52, 0.00, -0.81, -0.02, -0.54
182, 0.00, 159.93, 0.00, 0.00, 0.00, 0.00, 6991.98, 0.00, 0.00, 0.00, 0.00
183, 0.00, 161.47, 0.00, 0.00, 0.00, 0.00, 6995.96, 0.00, 0.00, 0.00, 0.00
184, 0.00, 157.49, 0.00, 0.00, 0.00, 0.00, 7004.12, 0.00, 0.00, 0.00, 0.00
185, 0.00, 158.97, 0.00, 0.00, 0.00, 0.00, 7008.46, 0.00, 0.00, 0.00, 0.00
186, 0.00, 160.40, 0.00, 0.00, 0.00, 0.00, 7008.95, 0.00, 0.00, 0.00, 0.00
187, 0.00, 166.70, 0.00, 0.00, 0.00, 0.00, 7003.96, 0.00, 0.00, 0.00, 0.00
188, 0.00, 172.60, 0.00, 0.00, 0.00, 0.00, 7000.16, 0.00, 0.00, 0.00, 0.00
189, 0.00, 168.73, 0.00, 0.00, 0.00, 0.00, 7002.15, 0.00, 0.00, 0.00, 0.00
190, 0.00, 167.41, 0.00, 0.00, 0.00, 0.00, 7005.62, 0.00, 0.00, 0.00, 0.00
191, 0.00, 174.75, 0.00, 0.00, 0.00, 0.00, 7005.89, 0.00, -0.81, -0.01, -0.54
192, 0.00, 170.48, 0.00, 0.00, 0.00, 0.00, 7006.02, 0.00, 0.00, 0.00, 0.00
193, 0.00, 163.01, 0.00, 0.00, 0.00, 0.00, 7009.93, 0.00, 0.00, 0.00, 0.00
194, 0.00, 168.89, 0.00, 0.00, 0.00, 0.00, 7013.22, 0.00, 0.00, 0.00, 0.00
195, 0.00, 168.15, 0.00, 0.00, 0.00, 0.00, 7009.69, 0.00, 0.00, 0.00, 0.00
196, 0.00, 167.03, 0.00, 0.00, 0.00, 0.00, 7012.55, 0.00, 0.00, 0.00, 0.00
197, 0.00, 162.07, 0.00, 0.00, 0.00, 0.00, 7015.07, 0.00, 0.00, 0.00, 0.00
198, 0.00, 157.22, 0.00, 0.00, 0.00, 0.00, 7016.86, 0.00, 0.00, 0.00, 0.00
199, 0.00, 154.41, 0.00, 0.00, 0.00, 0.00, 7015.41, 0.00, 0.00, 0.00, 0.00
200, 0.00, 162.81, 0.00, 0.00, 0.00, 0.00, 7017.67, 0.00, -0.81, -0.02, -0.54
201, 0.00, 160.17, 0.00, 0.00, 0.00, 0.00, 7015.21, 0.00, 0.00, 0.00, 0.00
202, 0.00, 153.53, 0.00, 0.00, 0.00, 0.00, 7012.59, 0.00, 0.00, 0.00, 0.00
203, 0.00, 153.40, 0.00, 0.00, 0.00, 0.00, 7013.44, 0.00, 0.00, 0.00, 0.00
204, 0.00, 164.64, 0.00, 0.00, 0.00, 0.00, 7011.50, 0.00, 0.00, 0.00, 0.00
205, 0.00, 163.68, 0.00, 0.00, 0.00, 0.00, 7012.95, 0.00, 0.00, 0.00, 0.00
206, 0.00, 153.98, 0.00, 0.00, 0.00, 0.00, 7008.03, 0.00, 0.00, 0.00, 0.00
207, 0.00, 150.32, 0.00, 0.00, 0.00, 0.00, 7004.57, 0.00, 0.00, 0.00, 0.00
208, 0.00, 154.05, 0.00, 0.00, 0.00, 0.00, 7000.86, 0.00, 0.00, 0.00, 0.00
209, 0.00, 157.92, 0.00, 0.00, 0.00, 0.00, 7002.47, 0.00, 0.00, 0.00, 0.00
210, 0.00, 157.47, 0.00, 0.00, 0.00, 0.00, 7008.75, 0.00, -0.81, -0.02, -0.53
211, 0.00, 163.12, 0.00, 0.00, 0.00, 0.00, 7011.81, 0.00, 0.00, 0.00, 0.00
212, 0.00, 166.01, 0.00, 0.00, 0.00, 0.00, 7008.01, 0.00, 0.00, 0.00, 0.00
213, 0.00, 161.74, 0.00, 0.00, 0.00, 0.00, 7007.90, 0.00, 0.00, 0.00, 0.00
214, 0.00, 155.26, 0.00, 0.00, 0.00, 0.00, 7014.33, 0.00, 0.00, 0.00, 0.00
215, 0.00, 153.91, 0.00, 0.00, 0.00, 0.00, 7019.77, 0.00, 0.00, 0.00, 0.00
216, 0.00, 146.20, 0.00, 0.00, 0.00, 0.00, 7016.73, 0.00, 0.00, 0.00, 0.00
217, 0.00, 149.71, 0.00, 0.00, 0.00, 0.00, 7017.82, 0.00, 0.00, 0.00, 0.00
218, 0.00, 155.61, 0.00, 0.00, 0.00, 0.00, 7022.90, 0.00, 0.00, 0.00, 0.00
219, 0.00, 151.68, 0.00, 0.00, 0.00, 0.00, 7028.60, 0.00, 0.00, 0.00, 0.00
220, 0.00, 154.00, 0.00, 0.00, 0.00, 0.00, 7026.29, 0.00, -0.81, -0.02, -0.53
221, 0.00, 149.20, 0.00, 0.00, 0.00, 0.00, 7022.27, 0.00, 0.00, 0.00, 0.00
222, 0.00, 141.96, 0.00, 0.00, 0.00, 0.00, 7020.46, 0.00, 0.00, 0.00, 0.00
223, 0.00, 144.41, 0.00, 0.00, 0.00, 0.00, 7024.88, 0.00, 0.00, 0.00, 0.00
224, 0.00, 142.02, 0.00, 0.00, 0.00, 0.00, 7024.62, 0.00, 0.00, 0.00, 0.00
225, 0.00, 144.57, 0.00, 0.00, 0.00, 0.00, 7021.11, 0.00, 0.00, 0.00, 0.00
226, 0.00, 148.19, 0.00, 0.00, 0.00, 0.00, 7022.94, 0.00, 0.00, 0.00, 0.00
227, 0.00, 143.92, 0.00, 0.00, 0.00, 0.00, 7026.90, 0.00, 0.00, 0.00, 0.00
228, 0.00, 144.79, 0.00, 0.00, 0.00, 0.00, 7024.50, 0.00, 0.00, 0.00, 0.00
229, 0.00, 142.09, 0.00, 0.00, 0.00, 0.00, 7021.51, 0.00, -0.81, -0.02, -0.53
230, 0.00, 144.68, 0.00, 0.00, 0.00, 0.00, 7021.22, 0.00, 0.00, 0.00, 0.00
231, 0.00, 162.41, 0.00, 0.00, 0.00, 0.00, 7024.62, 0.00, 0.00, 0.00, 0.00
232, 0.00, 155.32, 0.00, 0.00, 0.00, 0.00, 7024.48, 0.00, 0.00, 0.00, 0.00
233, 0.00, 141.62, 0.00, 0.00, 0.00, 0.00, 7032.77, 0.00, 0.00, 0.00, 0.00
234, 0.00, 156.84, 0.00, 0.00, 0.00, 0.00, 7043.08, 0.00, 0.00, 0.00, 0.00
235, 0.00, 181.54, 0.00, 0.00, 0.00, 0.00, 7049.87, 0.00, 0.00, 0.00, 0.00
236, 0.00, 193.63, 0.00, 0.00, 0.00, 0.00, 7051.26, 0.00, 0.00, 0.00, 0.00
237, 0.00, 194.75, 0.00, 0.00, 0.00, 0.00, 7043.88, 0.00, 0.00, 0.00, 0.00
238, 0.00, 194.04, 0.00, 0.00, 0.00, 0.00, 7035.84, 0.00, 0.00, 0.00, 0.00
239, 0.00, 187.04, 0.00, 0.00, 0.00, 0.00, 7030.34, 0.00, -0.81, -0.02, -0.53
240, 0.00, 186.03, 0.00, 0.00, 0.00, 0.00, 7040.31, 0.00, 0.00, 0.00, 0.00
241, 0.00, 193.70, 0.00, 0.00, 0.00, 0.00, 7048.38, 0.00, 0.00, 0.00, 0.00
242, 0.00, 193.14, 0.00, 0.00, 0.00, 0.00, 7043.39, 0.00, 0.00, 0.00, 0.00
243, 0.00, 188.22, 0.00, 0.00, 0.00, 0.00, 7039.59, 0.00, 0.00, 0.00, 0.00
244, 0.00, 185.83, 0.00, 0.00, 0.00, 0.00, 7044.22, 0.00, 0.00, 0.00, 0.00
245, 0.00, 192.52, 0.00, 0.00, 0.00, 0.00, 7050.08, 0.00, 0.00, 0.00, 0.00
246, 0.00, 192.60, 0.00, 0.00, 0.00, 0.00, 7046.88, 0.00, 0.00, 0.00, 0.00
247, 0.00, 188.67, 0.00, 0.00, 0.00, 0.00, 7043.08, 0.00, 0.00, 0.00, 0.00
248, 0.00, 193.50, 0.00, 0.00, 0.00, 0.00, 7046.66, 0.00, 0.00, 0.00, 0.00
249, 0.00, 194.50, 0.00, 0.00, 0.00, 0.00, 7054.95, 0.00, -0.81, -0.02, -0.54
250, 0.00, 198.01, 0.00, 0.00, 0.00, 0.00, 7059.08, 0.00, 0.00, 0.00, 0.00
251, 0.00, 199.60, 0.00, 0.00, 0.00, 0.00, 7060.58, 0.00, 0.00, 0.00, 0.00
252, 0.00, 190.17, 0.00, 0.00, 0.00, 0.00, 7061.81, 0.00, 0.00, 0.00, 0.00
253, 0.00, 188.27, 0.00, 0.00, 0.00, 0.00, 7061.61, 0.00, 0.00, 0.00, 0.00
254, 0.00, 186.95, 0.00, 0.00, 0.00, 0.00, 7054.37, 0.00, 0.00, 0.00, 0.00
255, 0.00, 196.54, 0.00, 0.00, 0.00, 0.00, 7053.56, 0.00, 0.00, 0.00, 0.00
0, 0.00, 200.07, 0.00, 0.00, 0.00, 0.00, 7058.05, 0.00, 0.00, 0.00, 0.00
1, 0.00, 196.76, 0.00, 0.00, 0.00, 0.00, 7060.31, 0.00, 0.00, 0.00, 0.00
2, 0.00, 194.77, 0.00, 0.00, 0.00, 0.00, 7053.23, 0.00, -0.81, -0.02, -0.54
3, 0.00, 199.60, 0.00, 0.00, 0.00, 0.00, 7057.09, 0.00, 0.00, 0.00, 0.00
4, 0.00, 196.54, 0.00, 0.00, 0.00, 0.00, 7061.79, 0.00, 0.00, 0.00, 0.00
5, 0.00, 195.09, 0.00, 0.00, 0.00, 0.00, 7062.01, 0.00, 0.00, 0.00, 0.00
6, 0.00, 203.56, 0.00, 0.00, 0.00, 0.00, 7060.25, 0.00, 0.00, 0.00, 0.00
7, 0.00, 196.83, 0.00, 0.00, 0.00, 0.00, 7054.17, 0.00, 0.00, 0.00, 0.00
8, 0.00, 195.06, 0.00, 0.00, 0.00, 0.00, 7056.92, 0.00, 0.00, 0.00, 0.00
9, 0.00, 185.05, 0.00, 0.00, 0.00, 0.00, 7059.13, 0.00, 0.00, 0.00, 0.00
10, 0.00, 196.23, 0.00, 0.00, 0.00, 0.00, 7062.06, 0.00, 0.00, 0.00, 0.00
11, 0.00, 209.84, 0.00, 0.00, 0.00, 0.00, 7066.77, 0.00, 0.00, 0.00, 0.00
12, 0.00, 212.01, 0.00, 0.00, 0.00, 0.00, 7076.43, 0.00, -0.81, -0.02, -0.54
13, 0.00, 197.68, 0.00, 0.00, 0.00, 0.00, 7071.04, 0.00, 0.00, 0.00, 0.00
14, 0.00, 188.16, 0.00, 0.00, 0.00, 0.00, 7065.45, 0.00, 0.00, 0.00, 0.00
15, 0.00, 191.02, 0.00, 0.00, 0.00, 0.00, 7069.10, 0.00, 0.00, 0.00, 0.00
16, 0.00, 196.85, 0.00, 0.00, 0.00, 0.00, 7067.60, 0.00, 0.00, 0.00, 0.00
17, 0.00, 201.39, 0.00, 0.00, 0.00, 0.00, 7075.09, 0.00, 0.00, 0.00, 0.00
18, 0.00, 199.85, 0.00, 0.00, 0.00, 0.00, 7077.66, 0.00, 0.00, 0.00, 0.00
19, 0.00, 201.46, 0.00, 0.00, 0.00, 0.00, 7077.03, 0.00, 0.00, 0.00, 0.00
20, 0.00, 190.68, 0.00, 0.00, 0.00, 0.00, 7073.34, 0.00, 0.00, 0.00, 0.00
21, 0.00, 194.77, 0.00, 0.00, 0.00, 0.00, 7074.39, 0.00, 0.00, 0.00, 0.00
22, 0.00, 199.91, 0.00, 0.00, 0.00, 0.00, 7072.72, 0.00, -0.81, -0.02, -0.53
23, 0.00, 204.59, 0.00, 0.00, 0.00, 0.00, 7075.06, 0.00, 0.00, 0.00, 0.00
24, 0.00, 208.50, 0.00, 0.00, 0.00, 0.00, 7079.58, 0.00, 0.00, 0.00, 0.00
25, 0.00, 199.44, 0.00, 0.00, 0.00, 0.00, 7079.00, 0.00, 0.00, 0.00, 0.00
26, 0.00, 189.77, 0.00, 0.00, 0.00, 0.00, 7077.21, 0.00, 0.00, 0.00, 0.00
27, 0.00, 189.30, 0.00, 0.00, 0.00, 0.00, 7075.35, 0.00, 0.00, 0.00, 0.00
28, 0.00, 188.94, 0.00, 0.00, 0.00, 0.00, 7071.40, 0.00, 0.00, 0.00, 0.00
29, 0.00, 197.50, 0.00, 0.00, 0.00, 0.00, 7077.34, 0.00, 0.00, 0.00, 0.00
30, 0.00, 198.84, 0.00, 0.00, 0.00, 0.00, 7083.13, 0.00, 0.00, 0.00, 0.00
31, 0.00, 190.08, 0.00, 0.00, 0.00, 0.00, 7079.29, 0.00, -0.81, -0.02, -0.54
32, 0.00, 199.74, 0.00, 0.00, 0.00, 0.00, 7083.40, 0.00, 0.00, 0.00, 0.00
33, 0.00, 200.52, 0.00, 0.00, 0.00, 0.00, 7087.22, 0.00, 0.00, 0.00, 0.00
34, 0.00, 198.42, 0.00, 0.00, 0.00, 0.00, 7091.11, 0.00, 0.00, 0.00, 0.00
35, 0.00, 189.99, 0.00, 0.00, 0.00, 0.00, 7083.69, 0.00, 0.00, 0.00, 0.00
36, 0.00, 192.29, 0.00, 0.00, 0.00, 0.00, 7077.21, 0.00, 0.00, 0.00, 0.00
37, 0.00, 206.17, 0.00, 0.00, 0.00, 0.00, 7086.75, 0.00, 0.00, 0.00, 0.00
38, 0.00, 204.90, 0.00, 0.00, 0.00, 0.00, 7095.45, 0.00, 0.00, 0.00, 0.00
39, 0.00, 201.39, 0.00, 0.00, 0.00, 0.00, 7090.93, 0.00, 0.00, 0.00, 0.00
40, 0.00, 202.60, 0.00, 0.00, 0.00, 0.00, 7087.22, 0.00, 0.00, 0.00, 0.00
41, 0.00, 185.25, 0.00, 0.00, 0.00, 0.00, 7090.24, 0.00, -0.81, -0.02, -0.54
42, 0.00, 180.38, 0.00, 0.00, 0.00, 0.00, 7093.08, 0.00, 0.00, 0.00, 0.00
43, 0.00, 185.03, 0.00, 0.00, 0.00, 0.00, 7096.86, 0.00, 0.00, 0.00, 0.00
44, 0.00, 192.96, 0.00, 0.00, 0.00, 0.00, 7093.68, 0.00, 0.00, 0.00, 0.00
45, 0.00, 182.46, 0.00, 0.00, 0.00, 0.00, 7095.96, 0.00, 0.00, 0.00, 0.00
46, 0.00, 171.42, 0.00, 0.00, 0.00, 0.00, 7098.49, 0.00, 0.00, 0.00, 0.00
47, 0.00, 183.26, 0.00, 0.00, 0.00, 0.00, 7097.98, 0.00, 0.00, 0.00, 0.00
48, 0.00, 190.73, 0.00, 0.00, 0.00, 0.00, 7092.52, 0.00, 0.00, 0.00, 0.00
49, 0.00, 182.75, 0.00, 0.00, 0.00, 0.00, 7088.48, 0.00, 0.00, 0.00, 0.00
50, 0.00, 178.88, 0.00, 0.00, 0.00, 0.00, 7090.71, 0.00, 0.00, 0.00, 0.00
51, 0.00, 178.81, 0.00, 0.00, 0.00, 0.00, 7100.10, 0.00, -0.81, -0.02, -0.53
52, 0.00, 178.84, 0.00, 0.00, 0.00, 0.00, 7101.66, 0.00, 0.00, 0.00, 0.00
53, 0.00, 179.26, 0.00, 0.00, 0.00, 0.00, 7098.78, 0.00, 0.00, 0.00, 0.00
54, 0.00, 180.54, 0.00, 0.00, 0.00, 0.00, 7100.41, 0.00, 0.00, 0.00, 0.00
55, 0.00, 185.34, 0.00, 0.00, 0.00, 0.00, 7111.68, 0.00, 0.00, 0.00, 0.00
56, 0.00, 186.15, 0.00, 0.00, 0.00, 0.00, 7113.46, 0.00, 0.00, 0.00, 0.00
57, 0.00, 179.28, 0.00, 0.00, 0.00, 0.00, 7109.96, 0.00, 0.00, 0.00, 0.00
58, 0.00, 181.81, 0.00, 0.00, 0.00, 0.00, 7109.35, 0.00, 0.00, 0.00, 0.00
59, 0.00, 177.38, 0.00, 0.00, 0.00, 0.00, 7110.29, 0.00, 0.00, 0.00, 0.00
60, 0.00, 177.81, 0.00, 0.00, 0.00, 0.00, 7113.24, 0.00, -0.81, -0.02, -0.54
61, 0.00, 178.72, 0.00, 0.00, 0.00, 0.00, 7107.45, 0.00, 0.00, 0.00, 0.00
62, 0.00, 177.52, 0.00, 0.00, 0.00, 0.00, 7104.14, 0.00, 0.00, 0.00, 0.00
63, 0.00, 182.88, 0.00, 0.00, 0.00, 0.00, 7106.58, 0.00, 0.00, 0.00, 0.00
64, 0.00, 179.66, 0.00, 0.00, 0.00, 0.00, 7100.79, 0.00, 0.00, 0.00, 0.00
65, 0.00, 173.36, 0.00, 0.00, 0.00, 0.00, 7092.61, 0.00, 0.00, 0.00, 0.00
66, 0.00, 173.85, 0.00, 0.00, 0.00, 0.00, 7096.77, 0.00, 0.00, 0.00, 0.00
67, 0.00, 175.91, 0.00, 0.00, 0.00, 0.00, 7104.73, 0.00, 0.00, 0.00, 0.00
68, 0.00, 178.57, 0.00, 0.00, 0.00, 0.00, 7108.21, 0.00, 0.00, 0.00, 0.00
69, 0.00, 180.76, 0.00, 0.00, 0.00, 0.00, 7105.60, 0.00, 0.00, 0.00, 0.00
70, 0.00, 177.54, 0.00, 0.00, 0.00, 0.00, 7103.90, 0.00, -0.81, -0.02, -0.55
71, 0.00, 175.04, 0.00, 0.00, 0.00, 0.00, 7109.02, 0.00, 0.00, 0.00, 0.00
72, 0.00, 180.13, 0.00, 0.00, 0.00, 0.00, 7111.68, 0.00, 0.00, 0.00, 0.00
73, 0.00, 183.08, 0.00, 0.00, 0.00, 0.00, 7113.22, 0.00, 0.00, 0.00, 0.00
74, 0.00, 180.38, 0.00, 0.00, 0.00, 0.00, 7113.93, 0.00, 0.00, 0.00, 0.00
75, 0.00, 179.46, 0.00, 0.00, 0.00, 0.00, 7115.03, 0.00, 0.00, 0.00, 0.00
76, 0.00, 173.36, 0.00, 0.00, 0.00, 0.00, 7113.73, 0.00, 0.00, 0.00, 0.00
77, 0.00, 173.74, 0.00, 0.00, 0.00, 0.00, 7111.36, 0.00, 0.00, 0.00, 0.00
78, 0.00, 179.78, 0.00, 0.00, 0.00, 0.00, 7116.44, 0.00, 0.00, 0.00, 0.00
79, 0.00, 176.94, 0.00, 0.00, 0.00, 0.00, 7122.43, 0.00, 0.00, 0.00, 0.00
80, 0.00, 177.20, 0.00, 0.00, 0.00, 0.00, 7123.52, 0.00, -0.81, -0.02, -0.55
81, 0.00, 180.40, 0.00, 0.00, 0.00, 0.00, 7119.50, 0.00, 0.00, 0.00, 0.00
82, 0.00, 179.33, 0.00, 0.00, 0.00, 0.00, 7116.06, 0.00, 0.00, 0.00, 0.00
83, 0.00, 176.56, 0.00, 0.00, 0.00, 0.00, 7122.63, 0.00, 0.00, 0.00, 0.00
84, 0.00, 173.49, 0.00, 0.00, 0.00, 0.00, 7124.48, 0.00, 0.00, 0.00, 0.00
85, 0.00, 170.43, 0.00, 0.00, 0.00, 0.00, 7120.89, 0.00, 0.00, 0.00, 0.00
86, 0.00, 178.10, 0.00, 0.00, 0.00, 0.00, 7120.60, 0.00, 0.00, 0.00, 0.00
87, 0.00, 176.42, 0.00, 0.00, 0.00, 0.00, 7117.94, 0.00, 0.00, 0.00, 0.00
88, 0.00, 172.24, 0.00, 0.00, 0.00, 0.00, 7117.76, 0.00, 0.00, 0.00, 0.00
89, 0.00, 176.15, 0.00, 0.00, 0.00, 0.00, 7123.86, 0.00, -0.81, -0.02, -0.54
90, 0.00, 177.83, 0.00, 0.00, 0.00, 0.00, 7123.63, 0.00, 0.00, 0.00, 0.00
91, 0.00, 175.77, 0.00, 0.00, 0.00, 0.00, 7122.23, 0.00, 0.00, 0.00, 0.00
92, 0.00, 177.09, 0.00, 0.00, 0.00, 0.00, 7127.05, 0.00, 0.00, 0.00, 0.00
93, 0.00, 179.62, 0.00, 0.00, 0.00, 0.00, 7130.45, 0.00, 0.00, 0.00, 0.00
94, 0.00, 186.86, 0.00, 0.00, 0.00, 0.00, 7130.74, 0.00, 0.00, 0.00, 0.00
95, 0.00, 179.95, 0.00, 0.00, 0.00, 0.00, 7122.81, 0.00, 0.00, 0.00, 0.00
96, 0.00, 183.46, 0.00, 0.00, 0.00, 0.00, 7125.33, 0.00, 0.00, 0.00, 0.00
97, 0.00, 188.83, 0.00, 0.00, 0.00, 0.00, 7130.23, 0.00, 0.00, 0.00, 0.00
98, 0.00, 188.25, 0.00, 0.00, 0.00, 0.00, 7131.86, 0.00, 0.00, 0.00, 0.00
99, 0.00, 178.99, 0.00, 0.00, 0.00, 0.00, 7128.31, 0.00, -0.80, -0.02, -0.54
100, 0.00, 167.95, 0.00, 0.00, 0.00, 0.00, 7129.09, 0.00, 0.00, 0.00, 0.00
101, 0.00, 170.30, 0.00, 0.00, 0.00, 0.00, 7128.06, 0.00, 0.00, 0.00, 0.00
102, 0.00, 186.15, 0.00, 0.00, 0.00, 0.00, 7137.52, 0.00, 0.00, 0.00, 0.00
103, 0.00, 182.03, 0.00, 0.00, 0.00, 0.00, 7133.80, 0.00, 0.00, 0.00, 0.00
104, 0.00, 182.39, 0.00, 0.00, 0.00, 0.00, 7132.62, 0.00, 0.00, 0.00, 0.00
105, 0.00, 177.47, 0.00, 0.00, 0.00, 0.00, 7144.42, 0.00, 0.00, 0.00, 0.00
106, 0.00, 175.71, 0.00, 0.00, 0.00, 0.00, 7146.43, 0.00, 0.00, 0.00, 0.00
107, 0.00, 179.64, 0.00, 0.00, 0.00, 0.00, 7144.27, 0.00, 0.00, 0.00, 0.00
108, 0.00, 172.13, 0.00, 0.00, 0.00, 0.00, 7142.75, 0.00, 0.00, 0.00, 0.00
109, 0.00, 168.69, 0.00, 0.00, 0.00, 0.00, 7139.10, 0.00, -0.81, -0.01, -0.54
110, 0.00, 174.50, 0.00, 0.00, 0.00, 0.00, 7137.29, 0.00, 0.00, 0.00, 0.00
111, 0.00, 166.03, 0.00, 0.00, 0.00, 0.00, 7140.60, 0.00, 0.00, 0.00, 0.00
112, 0.00, 169.52, 0.00, 0.00, 0.00, 0.00, 7148.83, 0.00, 0.00, 0.00, 0.00
113, 0.00, 184.74, 0.00, 0.00, 0.00, 0.00, 7154.95, 0.00, 0.00, 0.00, 0.00
114, 0.00, 180.04, 0.00, 0.00, 0.00, 0.00, 7151.62, 0.00, 0.00, 0.00, 0.00
115, 0.00, 178.57, 0.00, 0.00, 0.00, 0.00, 7142.75, 0.00, 0.00, 0.00, 0.00
116, 0.00, 175.51, 0.00, 0.00, 0.00, 0.00, 7141.07, 0.00, 0.00, 0.00, 0.00
117, 0.00, 170.63, 0.00, 0.00, 0.00, 0.00, 7145.03, 0.00, 0.00, 0.00, 0.00
118, 0.00, 168.73, 0.00, 0.00, 0.00, 0.00, 7153.43, 0.00, -0.80, -0.01, -0.55
119, 0.00, 170.83, 0.00, 0.00, 0.00, 0.00, 7150.01, 0.00, 0.00, 0.00, 0.00
120, 0.00, 174.63, 0.00, 0.00, 0.00, 0.00, 7146.61, 0.00, 0.00, 0.00, 0.00
121, 0.00, 172.76, 0.00, 0.00, 0.00, 0.00, 7150.90, 0.00, 0.00, 0.00, 0.00
122, 0.00, 173.56, 0.00, 0.00, 0.00, 0.00, 7149.27, 0.00, 0.00, 0.00, 0.00
123, 0.00, 171.80, 0.00, 0.00, 0.00, 0.00, 7145.16, 0.00, 0.00, 0.00, 0.00
124, 0.00, 174.03, 0.00, 0.00, 0.00, 0.00, 7146.28, 0.00, 0.00, 0.00, 0.00
125, 0.00, 174.39, 0.00, 0.00, 0.00, 0.00, 7151.42, 0.00, 0.00, 0.00, 0.00
126, 0.00, 182.30, 0.00, 0.00, 0.00, 0.00, 7153.30, 0.00, 0.00, 0.00, 0.00
127, 0.00, 192.16, 0.00, 0.00, 0.00, 0.00, 7156.11, 0.00, 0.00, 0.00, 0.00
128, 0.00, 189.88, 0.00, 0.00, 0.00, 0.00, 7153.32, 0.00, -0.81, -0.01, -0.55
129, 0.00, 178.48, 0.00, 0.00, 0.00, 0.00, 7154.93, 0.00, 0.00, 0.00, 0.00
130, 0.00, 174.77, 0.00, 0.00, 0.00, 0.00, 7155.87, 0.00, 0.00, 0.00, 0.00
131, 0.00, 181.18, 0.00, 0.00, 0.00, 0.00, 7155.82, 0.00, 0.00, 0.00, 0.00
132, 0.00, 182.73, 0.00, 0.00, 0.00, 0.00, 7157.21, 0.00, 0.00, 0.00, 0.00
133, 0.00, 179.40, 0.00, 0.00, 0.00, 0.00, 7156.18, 0.00, 0.00, 0.00, 0.00
134, 0.00, 171.95, 0.00, 0.00, 0.00, 0.00, 7157.63, 0.00, 0.00, 0.00, 0.00
135, 0.00, 167.95, 0.00, 0.00, 0.00, 0.00, 7154.99, 0.00, 0.00, 0.00, 0.00
136, 0.00, 173.96, 0.00, 0.00, 0.00, 0.00, 7153.25, 0.00, 0.00, 0.00, 0.00
137, 0.00, 179.82, 0.00, 0.00, 0.00, 0.00, 7152.40, 0.00, 0.00, 0.00, 0.00
138, 0.00, 180.83, 0.00, 0.00, 0.00, 0.00, 7154.10, 0.00, -0.80, -0.01, -0.55
139, 0.00, 178.79, 0.00, 0.00, 0.00, 0.00, 7151.46, 0.00, 0.00, 0.00, 0.00
140, 0.00, 180.62, 0.00, 0.00, 0.00, 0.00, 7150.79, 0.00, 0.00, 0.00, 0.00
141, 0.00, 176.31, 0.00, 0.00, 0.00, 0.00, 7152.92, 0.00, 0.00, 0.00, 0.00
142, 0.00, 173.92, 0.00, 0.00, 0.00, 0.00, 7159.84, 0.00, 0.00, 0.00, 0.00
143, 0.00, 165.76, 0.00, 0.00, 0.00, 0.00, 7160.98, 0.00, 0.00, 0.00, 0.00
144, 0.00, 167.82, 0.00, 0.00, 0.00, 0.00, 7156.67, 0.00, 0.00, 0.00, 0.00
145, 0.00, 176.22, 0.00, 0.00, 0.00, 0.00, 7162.44, 0.00, 0.00, 0.00, 0.00
146, 0.00, 173.74, 0.00, 0.00, 0.00, 0.00, 7162.33, 0.00, 0.00, 0.00, 0.00
147, 0.00, 174.86, 0.00, 0.00, 0.00, 0.00, 7165.90, 0.00, -0.80, -0.01, -0.55
148, 0.00, 177.16, 0.00, 0.00, 0.00, 0.00, 7167.62, 0.00, 0.00, 0.00, 0.00
149, 0.00, 177.76, 0.00, 0.00, 0.00, 0.00, 7169.97, 0.00, 0.00, 0.00, 0.00
150, 0.00, 168.13, 0.00, 0.00, 0.00, 0.00, 7172.34, 0.00, 0.00, 0.00, 0.00
151, 0.00, 166.65, 0.00, 0.00, 0.00, 0.00, 7172.18, 0.00, 0.00, 0.00, 0.00
152, 0.00, 174.99, 0.00, 0.00, 0.00, 0.00, 7167.62, 0.00, 0.00, 0.00, 0.00
153, 0.00, 167.37, 0.00, 0.00, 0.00, 0.00, 7156.56, 0.00, 0.00, 0.00, 0.00
154, 0.00, 170.01, 0.00, 0.00, 0.00, 0.00, 7162.53, 0.00, 0.00, 0.00, 0.00
155, 0.00, 174.21, 0.00, 0.00, 0.00, 0.00, 7172.09, 0.00, 0.00, 0.00, 0.00
156, 0.00, 171.35, 0.00, 0.00, 0.00, 0.00, 7169.63, 0.00, 0.00, 0.00, 0.00
157, 0.00, 173.58, 0.00, 0.00, 0.00, 0.00, 7170.39, 0.00, -0.81, -0.02, -0.55
158, 0.00, 171.26, 0.00, 0.00, 0.00, 0.00, 7163.47, 0.00, 0.00, 0.00, 0.00
159, 0.00, 168.85, 0.00, 0.00, 0.00, 0.00, 7162.91, 0.00, 0.00, 0.00, 0.00
160, 0.00, 169.00, 0.00, 0.00, 0.00, 0.00, 7168.32, 0.00, 0.00, 0.00, 0.00
161, 0.00, 163.39, 0.00, 0.00, 0.00, 0.00, 7164.11, 0.00, 0.00, 0.00, 0.00
162, 0.00, 163.08, 0.00, 0.00, 0.00, 0.00, 7160.38, 0.00, 0.00, 0.00, 0.00
163, 0.00, 164.31, 0.00, 0.00, 0.00, 0.00, 7163.69, 0.00, 0.00, 0.00, 0.00
164, 0.00, 170.79, 0.00, 0.00, 0.00, 0.00, 7169.41, 0.00, 0.00, 0.00, 0.00
165, 0.00, 169.67, 0.00, 0.00, 0.00, 0.00, 7167.51, 0.00, 0.00, 0.00, 0.00
166, 0.00, 171.97, 0.00, 0.00, 0.00, 0.00, 7165.57, 0.00, -0.81, -0.01, -0.55
167, 0.00, 171.10, 0.00, 0.00, 0.00, 0.00, 7168.83, 0.00, 0.00, 0.00, 0.00
168, 0.00, 174.54, 0.00, 0.00, 0.00, 0.00, 7172.70, 0.00, 0.00, 0.00, 0.00
169, 0.00, 175.48, 0.00, 0.00, 0.00, 0.00, 7171.13, 0.00, 0.00, 0.00, 0.00
170, 0.00, 174.21, 0.00, 0.00, 0.00, 0.00, 7170.08, 0.00, 0.00, 0.00, 0.00
171, 0.00, 173.23, 0.00, 0.00, 0.00, 0.00, 7174.60, 0.00, 0.00, 0.00, 0.00
172, 0.00, 163.57, 0.00, 0.00, 0.00, 0.00, 7170.86, 0.00, 0.00, 0.00, 0.00
173, 0.00, 173.11, 0.00, 0.00, 0.00, 0.00, 7172.76, 0.00, 0.00, 0.00, 0.00
174, 0.00, 175.42, 0.00, 0.00, 0.00, 0.00, 7173.46, 0.00, 0.00, 0.00, 0.00
175, 0.00, 172.38, 0.00, 0.00, 0.00, 0.00, 7176.85, 0.00, 0.00, 0.00, 0.00
176, 0.00, 177.65, 0.00, 0.00, 0.00, 0.00, 7180.34, 0.00, -0.80, -0.01, -0.55
177, 0.00, 177.92, 0.00, 0.00, 0.00, 0.00, 7179.34, 0.00, 0.00, 0.00, 0.00
178, 0.00, 173.18, 0.00, 0.00, 0.00, 0.00, 7171.62, 0.00, 0.00, 0.00, 0.00
179, 0.00, 183.24, 0.00, 0.00, 0.00, 0.00, 7172.76, 0.00, 0.00, 0.00, 0.00
180, 0.00, 183.80, 0.00, 0.00, 0.00, 0.00, 7182.67, 0.00, 0.00, 0.00, 0.00
181, 0.00, 167.50, 0.00, 0.00, 0.00, 0.00, 7180.25, 0.00, 0.00, 0.00, 0.00
182, 0.00, 163.97, 0.00, 0.00, 0.00, 0.00, 7169.95, 0.00, 0.00, 0.00, 0.00
183, 0.00, 169.27, 0.00, 0.00, 0.00, 0.00, 7172.14, 0.00, 0.00, 0.00, 0.00
184, 0.00, 171.15, 0.00, 0.00, 0.00, 0.00, 7175.56, 0.00, 0.00, 0.00, 0.00
185, 0.00, 163.19, 0.00, 0.00, 0.00, 0.00, 7177.39, 0.00, 0.00, 0.00, 0.00
186, 0.00, 161.76, 0.00, 0.00, 0.00, 0.00, 7184.54, 0.00, -0.81, -0.01, -0.54
187, 0.00, 165.09, 0.00, 0.00, 0.00, 0.00, 7187.83, 0.00, 0.00, 0.00, 0.00
188, 0.00, 166.83, 0.00, 0.00, 0.00, 0.00, 7190.91, 0.00, 0.00, 0.00, 0.00
189, 0.00, 163.82, 0.00, 0.00, 0.00, 0.00, 7187.49, 0.00, 0.00, 0.00, 0.00
190, 0.00, 166.21, 0.00, 0.00, 0.00, 0.00, 7185.42, 0.00, 0.00, 0.00, 0.00
191, 0.00, 160.98, 0.00, 0.00, 0.00, 0.00, 7185.95, 0.00, 0.00, 0.00, 0.00
192, 0.00, 159.88, 0.00, 0.00, 0.00, 0.00, 7189.08, 0.00, 0.00, 0.00, 0.00
193, 0.00, 159.14, 0.00, 0.00, 0.00, 0.00, 7194.15, 0.00, 0.00, 0.00, 0.00
194, 0.00, 168.73, 0.00, 0.00, 0.00, 0.00, 7198.60, 0.00, 0.00, 0.00, 0.00
195, 0.00, 172.18, 0.00, 0.00, 0.00, 0.00, 7195.05, 0.00, -0.81, -0.01, -0.54
196, 0.00, 173.61, 0.00, 0.00, 0.00, 0.00, 7197.42, 0.00, 0.00, 0.00, 0.00
197, 0.00, 166.65, 0.00, 0.00, 0.00, 0.00, 7190.51, 0.00, 0.00, 0.00, 0.00
198, 0.00, 158.83, 0.00, 0.00, 0.00, 0.00, 7182.11, 0.00, 0.00, 0.00, 0.00
199, 0.00, 153.87, 0.00, 0.00, 0.00, 0.00, 7187.34, 0.00, 0.00, 0.00, 0.00
200, 0.00, 153.42, 0.00, 0.00, 0.00, 0.00, 7194.09, 0.00, 0.00, 0.00, 0.00
201, 0.00, 169.40, 0.00, 0.00, 0.00, 0.00, 7197.80, 0.00, 0.00, 0.00, 0.00
202, 0.00, 169.45, 0.00, 0.00, 0.00, 0.00, 7199.23, 0.00, 0.00, 0.00, 0.00
203, 0.00, 166.92, 0.00, 0.00, 0.00, 0.00, 7195.38, 0.00, 0.00, 0.00, 0.00
204, 0.00, 161.98, 0.00, 0.00, 0.00, 0.00, 7196.77, 0.00, 0.00, 0.00, 0.00
205, 0.00, 157.71, 0.00, 0.00, 0.00, 0.00, 7197.57, 0.00, -0.81, -0.01, -0.54
206, 0.00, 159.28, 0.00, 0.00, 0.00, 0.00, 7195.12, 0.00, 0.00, 0.00, 0.00
207, 0.00, 163.15, 0.00, 0.00, 0.00, 0.00, 7194.56, 0.00, 0.00, 0.00, 0.00
208, 0.00, 160.95, 0.00, 0.00, 0.00, 0.00, 7193.86, 0.00, 0.00, 0.00, 0.00
209, 0.00, 162.25, 0.00, 0.00, 0.00, 0.00, 7200.52, 0.00, 0.00, 0.00, 0.00
210, 0.00, 161.29, 0.00, 0.00, 0.00, 0.00, 7196.23, 0.00, 0.00, 0.00, 0.00
211, 0.00, 160.57, 0.00, 0.00, 0.00, 0.00, 7195.47, 0.00, 0.00, 0.00, 0.00
212, 0.00, 161.29, 0.00, 0.00, 0.00, 0.00, 7199.88, 0.00, 0.00, 0.00, 0.00
213, 0.00, 159.01, 0.00, 0.00, 0.00, 0.00, 7201.04, 0.00, 0.00, 0.00, 0.00
214, 0.00, 181.90, 0.00, 0.00, 0.00, 0.00, 7196.30, 0.00, 0.00, 0.00, 0.00
215, 0.00, 195.71, 0.00, 0.00, 0.00, 0.00, 7192.21, 0.00, -0.80, -0.01, -0.55
216, 0.00, 164.91, 0.00, 0.00, 0.00, 0.00, 7197.48, 0.00, 0.00, 0.00, 0.00
217, 0.00, 125.24, 0.00, 0.00, 0.00, 0.00, 7201.93, 0.00, 0.00, 0.00, 0.00
218, 0.00, 102.08, 0.00, 0.00, 0.00, 0.00, 7200.52, 0.00, 0.00, 0.00, 0.00
219, 0.00, 88.24, 0.00, 0.00, 0.00, 0.00, 7194.91, 0.00, 0.00, 0.00, 0.00
220, 0.00, 69.25, 0.00, 0.00, 0.00, 0.00, 7200.08, 0.00, 0.00, 0.00, 0.00
221, 0.00, 45.02, 0.00, 0.00, 0.00, 0.00, 7204.28, 0.00, 0.00, 0.00, 0.00
222, 0.00, 41.04, 0.00, 0.00, 0.00, 0.00, 7198.89, 0.00, 0.00, 0.00, 0.00
223, 0.00, 28.27, 0.00, 0.00, 0.00, 0.00, 7195.27, 0.00, 0.00, 0.00, 0.00
224, 0.00, 4.76, 0.00, 0.00, 0.00, 0.00, 7185.82, 0.00, -0.80, -0.01, -0.54
225, 0.00, 7.11, 0.00, 0.00, 0.00, 0.00, 7185.84, 0.00, 0.00, 0.00, 0.00
226, 0.00, 22.46, 0.00, 0.00, 0.00, 0.00, 7191.29, 0.00, 0.00, 0.00, 0.00
227, 0.00, 33.08, 0.00, 0.00, 0.00, 0.00, 7194.53, 0.00, 0.00, 0.00, 0.00
228, 0.00, 30.93, 0.00, 0.00, 0.00, 0.00, 7188.92, 0.00, 0.00, 0.00, 0.00
229, 0.00, 30.02, 0.00, 0.00, 0.00, 0.00, 7194.09, 0.00, 0.00, 0.00, 0.00
230, 0.00, 26.11, 0.00, 0.00, 0.00, 0.00, 7195.65, 0.00, 0.00, 0.00, 0.00
231, 0.00, 28.59, 0.00, 0.00, 0.00, 0.00, 7192.01, 0.00, 0.00, 0.00, 0.00
232, 0.00, 30.80, 0.00, 0.00, 0.00, 0.00, 7186.94, 0.00, 0.00, 0.00, 0.00
233, 0.00, 34.71, 0.00, 0.00, 0.00, 0.00, 7190.02, 0.00, 0.00, 0.00, 0.00
234, 0.00, 32.39, 0.00, 0.00, 0.00, 0.00, 7197.26, 0.00, -0.80, -0.01, -0.54
235, 0.00, 34.22, 0.00, 0.00, 0.00, 0.00, 7198.27, 0.00, 0.00, 0.00, 0.00
236, 0.00, 25.88, 0.00, 0.00, 0.00, 0.00, 7185.55, 0.00, 0.00, 0.00, 0.00
237, 0.00, 22.13, 0.00, 0.00, 0.00, 0.00, 7179.00, 0.00, 0.00, 0.00, 0.00
238, 0.00, 27.45, 0.00, 0.00, 0.00, 0.00, 7183.94, 0.00, 0.00, 0.00, 0.00
239, 0.00, 19.74, 0.00, 0.00, 0.00, 0.00, 7189.57, 0.00, 0.00, 0.00, 0.00
240, 0.00, 27.00, 0.00, 0.00, 0.00, 0.00, 7198.13, 0.00, 0.00, 0.00, 0.00
241, 0.00, 34.40, 0.00, 0.00, 0.00, 0.00, 7188.16, 0.00, 0.00, 0.00, 0.00
242, 0.00, 26.76, 0.00, 0.00, 0.00, 0.00, 7186.56, 0.00, 0.00, 0.00, 0.00
243, 0.00, 27.56, 0.00, 0.00, 0.00, 0.00, 7188.81, 0.00, 0.00, 0.00, 0.00
244, 0.00, 33.26, 0.00, 0.00, 0.00, 0.00, 7184.41, 0.00, -0.81, -0.01, -0.54
245, 0.00, 37.42, 0.00, 0.00, 0.00, 0.00, 7186.17, 0.00, 0.00, 0.00, 0.00
246, 0.00, 45.06, 0.00, 0.00, 0.00, 0.00, 7191.94, 0.00, 0.00, 0.00, 0.00
247, 0.00, 44.17, 0.00, 0.00, 0.00, 0.00, 7179.00, 0.00, 0.00, 0.00, 0.00
248, 0.00, 36.86, 0.00, 0.00, 0.00, 0.00, 7170.06, 0.00, 0.00, 0.00, 0.00
249, 0.00, 40.55, 0.00, 0.00, 0.00, 0.00, 7186.82, 0.00, 0.00, 0.00, 0.00
250, 0.00, 46.51, 0.00, 0.00, 0.00, 0.00, 7192.30, 0.00, 0.00, 0.00, 0.00
251, 0.00, 40.08, 0.00, 0.00, 0.00, 0.00, 7186.40, 0.00, 0.00, 0.00, 0.00
252, 0.00, 35.63, 0.00, 0.00, 0.00, 0.00, 7179.92, 0.00, 0.00, 0.00, 0.00
253, 0.00, 38.20, 0.00, 0.00, 0.00, 0.00, 7184.59, 0.00, -0.81, -0.01, -0.55
254, 0.00, 40.10, 0.00, 0.00, 0.00, 0.00, 7202.60, 0.00, 0.00, 0.00, 0.00
255, 0.00, 28.12, 0.00, 0.00, 0.00, 0.00, 7197.69, 0.00, 0.00, 0.00, 0.00
0, 0.00, 12.38, 0.00, 0.00, 0.00, 0.00, 7183.54, 0.00, 0.00, 0.00, 0.00
1, 0.00, 43.83, 0.00, 0.00, 0.00, 0.00, 7211.88, 0.00, 0.00, 0.00, 0.00
2, 0.00, 57.04, 0.00, 0.00, 0.00, 0.00, 7219.12, 0.00, 0.00, 0.00, 0.00
3, 0.00, 43.83, 0.00, 0.00, 0.00, 0.00, 7214.20, 0.00, 0.00, 0.00, 0.00
4, 0.00, 22.44, 0.00, 0.00, 0.00, 0.00, 7195.21, 0.00, 0.00, 0.00, 0.00
5, 0.00, 25.95, 0.00, 0.00, 0.00, 0.00, 7192.25, 0.00, 0.00, 0.00, 0.00
6, 0.00, 35.81, 0.00, 0.00, 0.00, 0.00, 7210.63, 0.00, 0.00, 0.00, 0.00
7, 0.00, 22.08, 0.00, 0.00, 0.00, 0.00, 7202.60, 0.00, -0.80, -0.01, -0.55
8, 0.00, 29.21, 0.00, 0.00, 0.00, 0.00, 7202.38, 0.00, 0.00, 0.00, 0.00
9, 0.00, 34.53, 0.00, 0.00, 0.00, 0.00, 7206.34, 0.00, 0.00, 0.00, 0.00
10, 0.00, 38.07, 0.00, 0.00, 0.00, 0.00, 7214.16, 0.00, 0.00, 0.00, 0.00
11, 0.00, 44.12, 0.00, 0.00, 0.00, 0.00, 7234.77, 0.00, 0.00, 0.00, 0.00
12, 0.00, 43.09, 0.00, 0.00, 0.00, 0.00, 7230.74, 0.00, 0.00, 0.00, 0.00
13, 0.00, 46.96, 0.00, 0.00, 0.00, 0.00, 7221.25, 0.00, 0.00, 0.00, 0.00
14, 0.00, 30.00, 0.00, 0.00, 0.00, 0.00, 7204.17, 0.00, 0.00, 0.00, 0.00
15, 0.00, 40.43, 0.00, 0.00, 0.00, 0.00, 7211.16, 0.00, 0.00, 0.00, 0.00
16, 0.00, 42.89, 0.00, 0.00, 0.00, 0.00, 7219.68, 0.00, 0.00, 0.00, 0.00
17, 0.00, 35.07, 0.00, 0.00, 0.00, 0.00, 7216.22, 0.00, -0.81, -0.01, -0.55
18, 0.00, 26.02, 0.00, 0.00, 0.00, 0.00, 7204.66, 0.00, 0.00, 0.00, 0.00
19, 0.00, 45.51, 0.00, 0.00, 0.00, 0.00, 7212.77, 0.00, 0.00, 0.00, 0.00
20, 0.00, 44.46, 0.00, 0.00, 0.00, 0.00, 7214.43, 0.00, 0.00, 0.00, 0.00
21, 0.00, 33.48, 0.00, 0.00, 0.00, 0.00, 7222.79, 0.00, 0.00, 0.00, 0.00
22, 0.00, 28.41, 0.00, 0.00, 0.00, 0.00, 7228.15, 0.00, 0.00, 0.00, 0.00
23, 0.00, 20.23, 0.00, 0.00, 0.00, 0.00, 7210.69, 0.00, 0.00, 0.00, 0.00
24, 0.00, 40.41, 0.00, 0.00, 0.00, 0.00, 7244.04, 0.00, 0.00, 0.00, 0.00
25, 0.00, 40.12, 0.00, 0.00, 0.00, 0.00, 7231.48, 0.00, 0.00, 0.00, 0.00
26, 0.00, 72.29, 0.00, 0.00, 0.00, 0.00, 7210.69, 0.00, -0.81, -0.01, -0.55
27, 0.00, 86.03, 0.00, 0.00, 0.00, 0.00, 7221.02, 0.00, 0.00, 0.00, 0.00
28, 0.00, 66.18, 0.00, 0.00, 0.00, 0.00, 7235.21, 0.00, 0.00, 0.00, 0.00
29, 0.00, 48.08, 0.00, 0.00, 0.00, 0.00, 7233.72, 0.00, 0.00, 0.00, 0.00
30, 0.00, 63.79, 0.00, 0.00, 0.00, 0.00, 7229.25, 0.00, 0.00, 0.00, 0.00
31, 0.00, 100.83, 0.00, 0.00, 0.00, 0.00, 7244.38, 0.00, 0.00, 0.00, 0.00
32, 0.00, 114.35, 0.00, 0.00, 0.00, 0.00, 7251.60, 0.00, 0.00, 0.00, 0.00
33, 0.00, 95.98, 0.00, 0.00, 0.00, 0.00, 7244.16, 0.00, 0.00, 0.00, 0.00
34, 0.00, 106.04, 0.00, 0.00, 0.00, 0.00, 7248.16, 0.00, 0.00, 0.00, 0.00
35, 0.00, 131.36, 0.00, 0.00, 0.00, 0.00, 7234.14, 0.00, 0.00, 0.00, 0.00
36, 0.00, 156.40, 0.00, 0.00, 0.00, 0.00, 7261.81, 0.00, -0.80, -0.01, -0.55
37, 0.00, 172.29, 0.00, 0.00, 0.00, 0.00, 7275.78, 0.00, 0.00, 0.00, 0.00
38, 0.00, 167.39, 0.00, 0.00, 0.00, 0.00, 7259.69, 0.00, 0.00, 0.00, 0.00
39, 0.00, 164.26, 0.00, 0.00, 0.00, 0.00, 7250.88, 0.00, 0.00, 0.00, 0.00
40, 0.00, 162.18, 0.00, 0.00, 0.00, 0.00, 7253.65, 0.00, 0.00, 0.00, 0.00
41, 0.00, 164.82, 0.00, 0.00, 0.00, 0.00, 7282.53, 0.00, 0.00, 0.00, 0.00
42, 0.00, 149.69, 0.00, 0.00, 0.00, 0.00, 7257.43, 0.00, 0.00, 0.00, 0.00
43, 0.00, 159.68, 0.00, 0.00, 0.00, 0.00, 7266.55, 0.00, 0.00, 0.00, 0.00
44, 0.00, 173.78, 0.00, 0.00, 0.00, 0.00, 7280.43, 0.00, 0.00, 0.00, 0.00
45, 0.00, 156.08, 0.00, 0.00, 0.00, 0.00, 7270.35, 0.00, 0.00, 0.00, 0.00
46, 0.00, 155.50, 0.00, 0.00, 0.00, 0.00, 7275.38, 0.00, -0.80, -0.01, -0.54
47, 0.00, 162.65, 0.00, 0.00, 0.00, 0.00, 7270.08, 0.00, 0.00, 0.00, 0.00
48, 0.00, 189.05, 0.00, 0.00, 0.00, 0.00, 7310.72, 0.00, 0.00, 0.00, 0.00
49, 0.00, 177.58, 0.00, 0.00, 0.00, 0.00, 7300.84, 0.00, 0.00, 0.00, 0.00
50, 0.00, 176.27, 0.00, 0.00, 0.00, 0.00, 7291.25, 0.00, 0.00, 0.00, 0.00
51, 0.00, 178.70, 0.00, 0.00, 0.00, 0.00, 7282.89, 0.00, 0.00, 0.00, 0.00
52, 0.00, 185.81, 0.00, 0.00, 0.00, 0.00, 7299.79, 0.00, 0.00, 0.00, 0.00
53, 0.00, 181.00, 0.00, 0.00, 0.00, 0.00, 7296.66, 0.00, 0.00, 0.00, 0.00
54, 0.00, 179.04, 0.00, 0.00, 0.00, 0.00, 7302.05, 0.00, 0.00, 0.00, 0.00
55, 0.00, 174.99, 0.00, 0.00, 0.00, 0.00, 7282.24, 0.00, -0.81, -0.01, -0.54
56, 0.00, 179.08, 0.00, 0.00, 0.00, 0.00, 7297.75, 0.00, 0.00, 0.00, 0.00
57, 0.00, 186.91, 0.00, 0.00, 0.00, 0.00, 7304.91, 0.00, 0.00, 0.00, 0.00
58, 0.00, 181.23, 0.00, 0.00, 0.00, 0.00, 7299.97, 0.00, 0.00, 0.00, 0.00
59, 0.00, 183.26, 0.00, 0.00, 0.00, 0.00, 7300.53, 0.00, 0.00, 0.00, 0.00
60, 0.00, 162.52, 0.00, 0.00, 0.00, 0.00, 7280.21, 0.00, 0.00, 0.00, 0.00
61, 0.00, 177.41, 0.00, 0.00, 0.00, 0.00, 7300.82, 0.00, 0.00, 0.00, 0.00
62, 0.00, 181.65, 0.00, 0.00, 0.00, 0.00, 7311.17, 0.00, 0.00, 0.00, 0.00
63, 0.00, 163.39, 0.00, 0.00, 0.00, 0.00, 7284.34, 0.00, 0.00, 0.00, 0.00
64, 0.00, 170.97, 0.00, 0.00, 0.00, 0.00, 7295.30, 0.00, 0.00, 0.00, 0.00
65, 0.00, 149.60, 0.00, 0.00, 0.00, 0.00, 7272.72, 0.00, -0.81, -0.01, -0.55
