%OpenBCI Raw EEG Data
%
%Sample Rate = 250.0 Hz
%First Column = SampleIndex
%Other Columns = EEG data in microvolts followed by Accel Data (in G) interleaved with Aux Data
0, 0.00, 0.00, 0.00, 0.00, 0.00, 0.00, 0.00, 0.00, -0.40, -0.22, 0.08
1, 0.00, 4276.07, 0.00, 0.00, 0.00, 0.00, 25207.16, 0.00, 0.00, 0.00, 0.00
2, 0.00, 4275.42, 0.00, 0.00, 0.00, 0.00, 25206.91, 0.00, 0.00, 0.00, 0.00
3, 0.00, 4274.23, 0.00, 0.00, 0.00, 0.00, 25217.39, 0.00, 0.00, 0.00, 0.00
4, 0.00, 4275.80, 0.00, 0.00, 0.00, 0.00, 25208.83, 0.00, 0.00, 0.00, 0.00
5, 0.00, 4263.91, 0.00, 0.00, 0.00, 0.00, 25215.09, 0.00, 0.00, 0.00, 0.00
6, 0.00, 4261.63, 0.00, 0.00, 0.00, 0.00, 25210.13, 0.00, 0.00, 0.00, 0.00
7, 0.00, 4263.95, 0.00, 0.00, 0.00, 0.00, 25208.88, 0.00, -0.71, 0.32, -0.57
8, 0.00, 4269.25, 0.00, 0.00, 0.00, 0.00, 25207.98, 0.00, 0.00, 0.00, 0.00
9, 0.00, 4270.52, 0.00, 0.00, 0.00, 0.00, 25200.79, 0.00, 0.00, 0.00, 0.00
10, 0.00, 4274.32, 0.00, 0.00, 0.00, 0.00, 25208.27, 0.00, 0.00, 0.00, 0.00
11, 0.00, 4263.73, 0.00, 0.00, 0.00, 0.00, 25217.93, 0.00, 0.00, 0.00, 0.00
12, 0.00, 4253.22, 0.00, 0.00, 0.00, 0.00, 25201.41, 0.00, 0.00, 0.00, 0.00
13, 0.00, 4267.08, 0.00, 0.00, 0.00, 0.00, 25199.22, 0.00, 0.00, 0.00, 0.00
14, 0.00, 4269.65, 0.00, 0.00, 0.00, 0.00, 25195.53, 0.00, 0.00, 0.00, 0.00
15, 0.00, 4261.87, 0.00, 0.00, 0.00, 0.00, 25188.65, 0.00, 0.00, 0.00, 0.00
16, 0.00, 4263.17, 0.00, 0.00, 0.00, 0.00, 25190.26, 0.00, 0.00, 0.00, 0.00
17, 0.00, 4261.11, 0.00, 0.00, 0.00, 0.00, 25197.93, 0.00, -0.72, 0.32, -0.57
18, 0.00, 4260.04, 0.00, 0.00, 0.00, 0.00, 25202.35, 0.00, 0.00, 0.00, 0.00
19, 0.00, 4258.41, 0.00, 0.00, 0.00, 0.00, 25190.50, 0.00, 0.00, 0.00, 0.00
20, 0.00, 4261.00, 0.00, 0.00, 0.00, 0.00, 25196.99, 0.00, 0.00, 0.00, 0.00
21, 0.00, 4259.97, 0.00, 0.00, 0.00, 0.00, 25188.81, 0.00, 0.00, 0.00, 0.00
22, 0.00, 4261.52, 0.00, 0.00, 0.00, 0.00, 25197.52, 0.00, 0.00, 0.00, 0.00
23, 0.00, 4269.99, 0.00, 0.00, 0.00, 0.00, 25208.72, 0.00, 0.00, 0.00, 0.00
24, 0.00, 4262.25, 0.00, 0.00, 0.00, 0.00, 25208.81, 0.00, 0.00, 0.00, 0.00
25, 0.00, 4266.88, 0.00, 0.00, 0.00, 0.00, 25204.45, 0.00, 0.00, 0.00, 0.00
26, 0.00, 4262.34, 0.00, 0.00, 0.00, 0.00, 25209.41, 0.00, 0.00, 0.00, 0.00
27, 0.00, 4250.65, 0.00, 0.00, 0.00, 0.00, 25194.06, 0.00, -0.73, 0.33, -0.57
28, 0.00, 4252.82, 0.00, 0.00, 0.00, 0.00, 25197.75, 0.00, 0.00, 0.00, 0.00
29, 0.00, 4253.87, 0.00, 0.00, 0.00, 0.00, 25202.22, 0.00, 0.00, 0.00, 0.00
30, 0.00, 4269.61, 0.00, 0.00, 0.00, 0.00, 25210.78, 0.00, 0.00, 0.00, 0.00
31, 0.00, 4282.06, 0.00, 0.00, 0.00, 0.00, 25212.45, 0.00, 0.00, 0.00, 0.00
32, 0.00, 4276.40, 0.00, 0.00, 0.00, 0.00, 25216.88, 0.00, 0.00, 0.00, 0.00
33, 0.00, 4256.04, 0.00, 0.00, 0.00, 0.00, 25208.92, 0.00, 0.00, 0.00, 0.00
34, 0.00, 4258.41, 0.00, 0.00, 0.00, 0.00, 25200.25, 0.00, 0.00, 0.00, 0.00
35, 0.00, 4252.67, 0.00, 0.00, 0.00, 0.00, 25200.23, 0.00, 0.00, 0.00, 0.00
36, 0.00, 4255.59, 0.00, 0.00, 0.00, 0.00, 25200.61, 0.00, -0.71, 0.32, -0.56
37, 0.00, 4268.76, 0.00, 0.00, 0.00, 0.00, 25201.66, 0.00, 0.00, 0.00, 0.00
38, 0.00, 4270.84, 0.00, 0.00, 0.00, 0.00, 25207.94, 0.00, 0.00, 0.00, 0.00
39, 0.00, 4269.07, 0.00, 0.00, 0.00, 0.00, 25211.00, 0.00, 0.00, 0.00, 0.00
40, 0.00, 4279.93, 0.00, 0.00, 0.00, 0.00, 25211.31, 0.00, 0.00, 0.00, 0.00
41, 0.00, 4276.27, 0.00, 0.00, 0.00, 0.00, 25217.86, 0.00, 0.00, 0.00, 0.00
42, 0.00, 4259.42, 0.00, 0.00, 0.00, 0.00, 25207.49, 0.00, 0.00, 0.00, 0.00
43, 0.00, 4258.30, 0.00, 0.00, 0.00, 0.00, 25199.11, 0.00, 0.00, 0.00, 0.00
44, 0.00, 4258.30, 0.00, 0.00, 0.00, 0.00, 25213.68, 0.00, 0.00, 0.00, 0.00
45, 0.00, 4254.74, 0.00, 0.00, 0.00, 0.00, 25217.57, 0.00, 0.00, 0.00, 0.00
46, 0.00, 4254.43, 0.00, 0.00, 0.00, 0.00, 25214.87, 0.00, -0.71, 0.32, -0.57
47, 0.00, 4265.58, 0.00, 0.00, 0.00, 0.00, 25218.49, 0.00, 0.00, 0.00, 0.00
48, 0.00, 4261.96, 0.00, 0.00, 0.00, 0.00, 25202.28, 0.00, 0.00, 0.00, 0.00
49, 0.00, 4257.20, 0.00, 0.00, 0.00, 0.00, 25196.25, 0.00, 0.00, 0.00, 0.00
50, 0.00, 4255.79, 0.00, 0.00, 0.00, 0.00, 25209.57, 0.00, 0.00, 0.00, 0.00
51, 0.00, 4251.70, 0.00, 0.00, 0.00, 0.00, 25224.08, 0.00, 0.00, 0.00, 0.00
52, 0.00, 4250.54, 0.00, 0.00, 0.00, 0.00, 25221.80, 0.00, 0.00, 0.00, 0.00
53, 0.00, 4246.27, 0.00, 0.00, 0.00, 0.00, 25213.66, 0.00, 0.00, 0.00, 0.00
54, 0.00, 4247.01, 0.00, 0.00, 0.00, 0.00, 25213.19, 0.00, 0.00, 0.00, 0.00
55, 0.00, 4254.56, 0.00, 0.00, 0.00, 0.00, 25212.07, 0.00, 0.00, 0.00, 0.00
56, 0.00, 4266.88, 0.00, 0.00, 0.00, 0.00, 25211.13, 0.00, -0.72, 0.32, -0.57
57, 0.00, 4254.39, 0.00, 0.00, 0.00, 0.00, 25214.09, 0.00, 0.00, 0.00, 0.00
58, 0.00, 4244.33, 0.00, 0.00, 0.00, 0.00, 25221.21, 0.00, 0.00, 0.00, 0.00
59, 0.00, 4242.32, 0.00, 0.00, 0.00, 0.00, 25215.40, 0.00, 0.00, 0.00, 0.00
60, 0.00, 4242.43, 0.00, 0.00, 0.00, 0.00, 25210.55, 0.00, 0.00, 0.00, 0.00
61, 0.00, 4249.69, 0.00, 0.00, 0.00, 0.00, 25202.02, 0.00, 0.00, 0.00, 0.00
62, 0.00, 4265.23, 0.00, 0.00, 0.00, 0.00, 25183.15, 0.00, 0.00, 0.00, 0.00
63, 0.00, 4287.38, 0.00, 0.00, 0.00, 0.00, 25184.45, 0.00, 0.00, 0.00, 0.00
64, 0.00, 4270.03, 0.00, 0.00, 0.00, 0.00, 25200.72, 0.00, 0.00, 0.00, 0.00
65, 0.00, 4251.03, 0.00, 0.00, 0.00, 0.00, 25198.75, 0.00, -0.72, 0.31, -0.57
66, 0.00, 4267.69, 0.00, 0.00, 0.00, 0.00, 25202.62, 0.00, 0.00, 0.00, 0.00
67, 0.00, 4280.78, 0.00, 0.00, 0.00, 0.00, 25211.61, 0.00, 0.00, 0.00, 0.00
68, 0.00, 4284.23, 0.00, 0.00, 0.00, 0.00, 25213.57, 0.00, 0.00, 0.00, 0.00
69, 0.00, 4299.98, 0.00, 0.00, 0.00, 0.00, 25221.30, 0.00, 0.00, 0.00, 0.00
70, 0.00, 4309.86, 0.00, 0.00, 0.00, 0.00, 25221.89, 0.00, 0.00, 0.00, 0.00
71, 0.00, 4326.87, 0.00, 0.00, 0.00, 0.00, 25211.96, 0.00, 0.00, 0.00, 0.00
72, 0.00, 4349.56, 0.00, 0.00, 0.00, 0.00, 25209.26, 0.00, 0.00, 0.00, 0.00
73, 0.00, 4351.97, 0.00, 0.00, 0.00, 0.00, 25209.59, 0.00, 0.00, 0.00, 0.00
74, 0.00, 4365.36, 0.00, 0.00, 0.00, 0.00, 25232.64, 0.00, 0.00, 0.00, 0.00
75, 0.00, 4366.17, 0.00, 0.00, 0.00, 0.00, 25232.75, 0.00, -0.73, 0.31, -0.58
76, 0.00, 4369.74, 0.00, 0.00, 0.00, 0.00, 25218.91, 0.00, 0.00, 0.00, 0.00
77, 0.00, 4375.85, 0.00, 0.00, 0.00, 0.00, 25210.15, 0.00, 0.00, 0.00, 0.00
78, 0.00, 4384.36, 0.00, 0.00, 0.00, 0.00, 25218.38, 0.00, 0.00, 0.00, 0.00
79, 0.00, 4390.11, 0.00, 0.00, 0.00, 0.00, 25220.61, 0.00, 0.00, 0.00, 0.00
80, 0.00, 4390.62, 0.00, 0.00, 0.00, 0.00, 25222.15, 0.00, 0.00, 0.00, 0.00
81, 0.00, 4387.54, 0.00, 0.00, 0.00, 0.00, 25211.83, 0.00, 0.00, 0.00, 0.00
82, 0.00, 4386.55, 0.00, 0.00, 0.00, 0.00, 25205.12, 0.00, 0.00, 0.00, 0.00
83, 0.00, 4400.59, 0.00, 0.00, 0.00, 0.00, 25227.03, 0.00, 0.00, 0.00, 0.00
84, 0.00, 4409.91, 0.00, 0.00, 0.00, 0.00, 25238.52, 0.00, 0.00, 0.00, 0.00
85, 0.00, 4404.30, 0.00, 0.00, 0.00, 0.00, 25235.52, 0.00, -0.72, 0.32, -0.58
86, 0.00, 4393.17, 0.00, 0.00, 0.00, 0.00, 25231.97, 0.00, 0.00, 0.00, 0.00
87, 0.00, 4387.38, 0.00, 0.00, 0.00, 0.00, 25207.02, 0.00, 0.00, 0.00, 0.00
88, 0.00, 4391.96, 0.00, 0.00, 0.00, 0.00, 25211.76, 0.00, 0.00, 0.00, 0.00
89, 0.00, 4398.00, 0.00, 0.00, 0.00, 0.00, 25240.64, 0.00, 0.00, 0.00, 0.00
90, 0.00, 4391.65, 0.00, 0.00, 0.00, 0.00, 25257.31, 0.00, 0.00, 0.00, 0.00
91, 0.00, 4394.82, 0.00, 0.00, 0.00, 0.00, 25250.45, 0.00, 0.00, 0.00, 0.00
92, 0.00, 4398.33, 0.00, 0.00, 0.00, 0.00, 25244.33, 0.00, 0.00, 0.00, 0.00
93, 0.00, 4382.24, 0.00, 0.00, 0.00, 0.00, 25234.58, 0.00, 0.00, 0.00, 0.00
94, 0.00, 4380.45, 0.00, 0.00, 0.00, 0.00, 25230.22, 0.00, -0.72, 0.31, -0.58
95, 0.00, 4382.08, 0.00, 0.00, 0.00, 0.00, 25227.36, 0.00, 0.00, 0.00, 0.00
96, 0.00, 4396.27, 0.00, 0.00, 0.00, 0.00, 25227.59, 0.00, 0.00, 0.00, 0.00
97, 0.00, 4403.63, 0.00, 0.00, 0.00, 0.00, 25220.32, 0.00, 0.00, 0.00, 0.00
98, 0.00, 4398.62, 0.00, 0.00, 0.00, 0.00, 25219.29, 0.00, 0.00, 0.00, 0.00
99, 0.00, 4401.68, 0.00, 0.00, 0.00, 0.00, 25215.52, 0.00, 0.00, 0.00, 0.00
100, 0.00, 4412.26, 0.00, 0.00, 0.00, 0.00, 25222.33, 0.00, 0.00, 0.00, 0.00
101, 0.00, 4409.98, 0.00, 0.00, 0.00, 0.00, 25225.04, 0.00, 0.00, 0.00, 0.00
102, 0.00, 4399.63, 0.00, 0.00, 0.00, 0.00, 25218.13, 0.00, 0.00, 0.00, 0.00
103, 0.00, 4400.90, 0.00, 0.00, 0.00, 0.00, 25212.45, 0.00, 0.00, 0.00, 0.00
104, 0.00, 4403.72, 0.00, 0.00, 0.00, 0.00, 25223.14, 0.00, -0.72, 0.30, -0.57
105, 0.00, 4414.94, 0.00, 0.00, 0.00, 0.00, 25226.65, 0.00, 0.00, 0.00, 0.00
106, 0.00, 4419.70, 0.00, 0.00, 0.00, 0.00, 25220.84, 0.00, 0.00, 0.00, 0.00
107, 0.00, 4418.31, 0.00, 0.00, 0.00, 0.00, 25232.19, 0.00, 0.00, 0.00, 0.00
108, 0.00, 4409.40, 0.00, 0.00, 0.00, 0.00, 25231.72, 0.00, 0.00, 0.00, 0.00
109, 0.00, 4400.86, 0.00, 0.00, 0.00, 0.00, 25228.39, 0.00, 0.00, 0.00, 0.00
110, 0.00, 4410.60, 0.00, 0.00, 0.00, 0.00, 25234.98, 0.00, 0.00, 0.00, 0.00
111, 0.00, 4414.54, 0.00, 0.00, 0.00, 0.00, 25223.85, 0.00, 0.00, 0.00, 0.00
112, 0.00, 4409.46, 0.00, 0.00, 0.00, 0.00, 25231.74, 0.00, 0.00, 0.00, 0.00
113, 0.00, 4414.04, 0.00, 0.00, 0.00, 0.00, 25237.22, 0.00, 0.00, 0.00, 0.00
114, 0.00, 4410.63, 0.00, 0.00, 0.00, 0.00, 25226.92, 0.00, -0.72, 0.30, -0.57
115, 0.00, 4405.17, 0.00, 0.00, 0.00, 0.00, 25219.09, 0.00, 0.00, 0.00, 0.00
116, 0.00, 4405.35, 0.00, 0.00, 0.00, 0.00, 25238.45, 0.00, 0.00, 0.00, 0.00
117, 0.00, 4406.33, 0.00, 0.00, 0.00, 0.00, 25234.52, 0.00, 0.00, 0.00, 0.00
118, 0.00, 4402.38, 0.00, 0.00, 0.00, 0.00, 25226.83, 0.00, 0.00, 0.00, 0.00
119, 0.00, 4406.94, 0.00, 0.00, 0.00, 0.00, 25221.78, 0.00, 0.00, 0.00, 0.00
120, 0.00, 4415.72, 0.00, 0.00, 0.00, 0.00, 25223.14, 0.00, 0.00, 0.00, 0.00
121, 0.00, 4417.58, 0.00, 0.00, 0.00, 0.00, 25230.54, 0.00, 0.00, 0.00, 0.00
122, 0.00, 4413.69, 0.00, 0.00, 0.00, 0.00, 25214.02, 0.00, 0.00, 0.00, 0.00
123, 0.00, 4410.00, 0.00, 0.00, 0.00, 0.00, 25207.40, 0.00, -0.73, 0.30, -0.57
124, 0.00, 4406.87, 0.00, 0.00, 0.00, 0.00, 25226.98, 0.00, 0.00, 0.00, 0.00
125, 0.00, 4403.54, 0.00, 0.00, 0.00, 0.00, 25235.99, 0.00, 0.00, 0.00, 0.00
126, 0.00, 4410.13, 0.00, 0.00, 0.00, 0.00, 25251.23, 0.00, 0.00, 0.00, 0.00
127, 0.00, 4411.14, 0.00, 0.00, 0.00, 0.00, 25253.02, 0.00, 0.00, 0.00, 0.00
128, 0.00, 4401.55, 0.00, 0.00, 0.00, 0.00, 25253.04, 0.00, 0.00, 0.00, 0.00
129, 0.00, 4399.87, 0.00, 0.00, 0.00, 0.00, 25249.22, 0.00, 0.00, 0.00, 0.00
130, 0.00, 4407.14, 0.00, 0.00, 0.00, 0.00, 25233.24, 0.00, 0.00, 0.00, 0.00
131, 0.00, 4416.21, 0.00, 0.00, 0.00, 0.00, 25229.78, 0.00, 0.00, 0.00, 0.00
132, 0.00, 4411.30, 0.00, 0.00, 0.00, 0.00, 25242.81, 0.00, 0.00, 0.00, 0.00
133, 0.00, 4408.46, 0.00, 0.00, 0.00, 0.00, 25248.26, 0.00, -0.72, 0.30, -0.58
134, 0.00, 4417.02, 0.00, 0.00, 0.00, 0.00, 25251.57, 0.00, 0.00, 0.00, 0.00
135, 0.00, 4410.54, 0.00, 0.00, 0.00, 0.00, 25243.34, 0.00, 0.00, 0.00, 0.00
136, 0.00, 4406.40, 0.00, 0.00, 0.00, 0.00, 25234.47, 0.00, 0.00, 0.00, 0.00
137, 0.00, 4418.45, 0.00, 0.00, 0.00, 0.00, 25248.91, 0.00, 0.00, 0.00, 0.00
138, 0.00, 4417.80, 0.00, 0.00, 0.00, 0.00, 25249.20, 0.00, 0.00, 0.00, 0.00
139, 0.00, 4420.95, 0.00, 0.00, 0.00, 0.00, 25245.20, 0.00, 0.00, 0.00, 0.00
140, 0.00, 4416.12, 0.00, 0.00, 0.00, 0.00, 25245.58, 0.00, 0.00, 0.00, 0.00
141, 0.00, 4410.78, 0.00, 0.00, 0.00, 0.00, 25243.61, 0.00, 0.00, 0.00, 0.00
142, 0.00, 4406.27, 0.00, 0.00, 0.00, 0.00, 25246.07, 0.00, 0.00, 0.00, 0.00
143, 0.00, 4404.99, 0.00, 0.00, 0.00, 0.00, 25242.94, 0.00, -0.72, 0.30, -0.57
144, 0.00, 4403.16, 0.00, 0.00, 0.00, 0.00, 25240.24, 0.00, 0.00, 0.00, 0.00
145, 0.00, 4424.51, 0.00, 0.00, 0.00, 0.00, 25242.40, 0.00, 0.00, 0.00, 0.00
146, 0.00, 4440.17, 0.00, 0.00, 0.00, 0.00, 25232.06, 0.00, 0.00, 0.00, 0.00
147, 0.00, 4420.97, 0.00, 0.00, 0.00, 0.00, 25254.81, 0.00, 0.00, 0.00, 0.00
148, 0.00, 4414.38, 0.00, 0.00, 0.00, 0.00, 25256.38, 0.00, 0.00, 0.00, 0.00
149, 0.00, 4418.67, 0.00, 0.00, 0.00, 0.00, 25253.54, 0.00, 0.00, 0.00, 0.00
150, 0.00, 4410.47, 0.00, 0.00, 0.00, 0.00, 25250.63, 0.00, 0.00, 0.00, 0.00
151, 0.00, 4406.74, 0.00, 0.00, 0.00, 0.00, 25244.91, 0.00, 0.00, 0.00, 0.00
152, 0.00, 4399.47, 0.00, 0.00, 0.00, 0.00, 25245.45, 0.00, -0.72, 0.30, -0.57
153, 0.00, 4414.92, 0.00, 0.00, 0.00, 0.00, 25234.94, 0.00, 0.00, 0.00, 0.00
154, 0.00, 4412.75, 0.00, 0.00, 0.00, 0.00, 25238.31, 0.00, 0.00, 0.00, 0.00
155, 0.00, 4412.97, 0.00, 0.00, 0.00, 0.00, 25254.52, 0.00, 0.00, 0.00, 0.00
156, 0.00, 4409.62, 0.00, 0.00, 0.00, 0.00, 25250.16, 0.00, 0.00, 0.00, 0.00
157, 0.00, 4411.00, 0.00, 0.00, 0.00, 0.00, 25249.49, 0.00, 0.00, 0.00, 0.00
158, 0.00, 4418.63, 0.00, 0.00, 0.00, 0.00, 25254.21, 0.00, 0.00, 0.00, 0.00
159, 0.00, 4413.06, 0.00, 0.00, 0.00, 0.00, 25252.49, 0.00, 0.00, 0.00, 0.00
160, 0.00, 4416.35, 0.00, 0.00, 0.00, 0.00, 25234.96, 0.00, 0.00, 0.00, 0.00
161, 0.00, 4427.03, 0.00, 0.00, 0.00, 0.00, 25217.48, 0.00, 0.00, 0.00, 0.00
162, 0.00, 4420.37, 0.00, 0.00, 0.00, 0.00, 25235.61, 0.00, -0.72, 0.30, -0.58
163, 0.00, 4423.50, 0.00, 0.00, 0.00, 0.00, 25248.73, 0.00, 0.00, 0.00, 0.00
164, 0.00, 4428.77, 0.00, 0.00, 0.00, 0.00, 25244.37, 0.00, 0.00, 0.00, 0.00
165, 0.00, 4421.15, 0.00, 0.00, 0.00, 0.00, 25229.31, 0.00, 0.00, 0.00, 0.00
166, 0.00, 4405.13, 0.00, 0.00, 0.00, 0.00, 25228.50, 0.00, 0.00, 0.00, 0.00
167, 0.00, 4411.21, 0.00, 0.00, 0.00, 0.00, 25230.36, 0.00, 0.00, 0.00, 0.00
168, 0.00, 4412.08, 0.00, 0.00, 0.00, 0.00, 25247.14, 0.00, 0.00, 0.00, 0.00
169, 0.00, 4409.19, 0.00, 0.00, 0.00, 0.00, 25237.53, 0.00, 0.00, 0.00, 0.00
170, 0.00, 4405.62, 0.00, 0.00, 0.00, 0.00, 25235.81, 0.00, 0.00, 0.00, 0.00
171, 0.00, 4410.74, 0.00, 0.00, 0.00, 0.00, 25241.58, 0.00, 0.00, 0.00, 0.00
172, 0.00, 4414.20, 0.00, 0.00, 0.00, 0.00, 25227.94, 0.00, -0.73, 0.31, -0.58
173, 0.00, 4423.88, 0.00, 0.00, 0.00, 0.00, 25237.44, 0.00, 0.00, 0.00, 0.00
174, 0.00, 4433.27, 0.00, 0.00, 0.00, 0.00, 25249.67, 0.00, 0.00, 0.00, 0.00
175, 0.00, 4424.24, 0.00, 0.00, 0.00, 0.00, 25246.27, 0.00, 0.00, 0.00, 0.00
176, 0.00, 4417.11, 0.00, 0.00, 0.00, 0.00, 25234.85, 0.00, 0.00, 0.00, 0.00
177, 0.00, 4417.42, 0.00, 0.00, 0.00, 0.00, 25214.46, 0.00, 0.00, 0.00, 0.00
178, 0.00, 4427.08, 0.00, 0.00, 0.00, 0.00, 25208.99, 0.00, 0.00, 0.00, 0.00
179, 0.00, 4429.78, 0.00, 0.00, 0.00, 0.00, 25230.45, 0.00, 0.00, 0.00, 0.00
180, 0.00, 4422.63, 0.00, 0.00, 0.00, 0.00, 25235.65, 0.00, 0.00, 0.00, 0.00
181, 0.00, 4420.01, 0.00, 0.00, 0.00, 0.00, 25238.14, 0.00, -0.72, 0.31, -0.57
182, 0.00, 4426.76, 0.00, 0.00, 0.00, 0.00, 25231.65, 0.00, 0.00, 0.00, 0.00
183, 0.00, 4432.26, 0.00, 0.00, 0.00, 0.00, 25232.23, 0.00, 0.00, 0.00, 0.00
184, 0.00, 4434.72, 0.00, 0.00, 0.00, 0.00, 25233.87, 0.00, 0.00, 0.00, 0.00
185, 0.00, 4423.25, 0.00, 0.00, 0.00, 0.00, 25224.81, 0.00, 0.00, 0.00, 0.00
186, 0.00, 4416.55, 0.00, 0.00, 0.00, 0.00, 25227.03, 0.00, 0.00, 0.00, 0.00
187, 0.00, 4411.05, 0.00, 0.00, 0.00, 0.00, 25233.17, 0.00, 0.00, 0.00, 0.00
188, 0.00, 4420.17, 0.00, 0.00, 0.00, 0.00, 25239.43, 0.00, 0.00, 0.00, 0.00
189, 0.00, 4425.49, 0.00, 0.00, 0.00, 0.00, 25236.44, 0.00, 0.00, 0.00, 0.00
190, 0.00, 4425.38, 0.00, 0.00, 0.00, 0.00, 25231.43, 0.00, 0.00, 0.00, 0.00
191, 0.00, 4429.40, 0.00, 0.00, 0.00, 0.00, 25229.44, 0.00, -0.73, 0.30, -0.57
192, 0.00, 4426.38, 0.00, 0.00, 0.00, 0.00, 25232.32, 0.00, 0.00, 0.00, 0.00
193, 0.00, 4426.90, 0.00, 0.00, 0.00, 0.00, 25238.05, 0.00, 0.00, 0.00, 0.00
194, 0.00, 4425.06, 0.00, 0.00, 0.00, 0.00, 25230.38, 0.00, 0.00, 0.00, 0.00
195, 0.00, 4424.19, 0.00, 0.00, 0.00, 0.00, 25231.95, 0.00, 0.00, 0.00, 0.00
196, 0.00, 4426.29, 0.00, 0.00, 0.00, 0.00, 25230.92, 0.00, 0.00, 0.00, 0.00
197, 0.00, 4421.47, 0.00, 0.00, 0.00, 0.00, 25234.13, 0.00, 0.00, 0.00, 0.00
198, 0.00, 4410.42, 0.00, 0.00, 0.00, 0.00, 25235.07, 0.00, 0.00, 0.00, 0.00
199, 0.00, 4424.15, 0.00, 0.00, 0.00, 0.00, 25227.99, 0.00, 0.00, 0.00, 0.00
200, 0.00, 4426.32, 0.00, 0.00, 0.00, 0.00, 25206.93, 0.00, 0.00, 0.00, 0.00
201, 0.00, 4422.05, 0.00, 0.00, 0.00, 0.00, 25218.18, 0.00, -0.74, 0.29, -0.56
202, 0.00, 4421.20, 0.00, 0.00, 0.00, 0.00, 25250.16, 0.00, 0.00, 0.00, 0.00
203, 0.00, 4419.74, 0.00, 0.00, 0.00, 0.00, 25254.43, 0.00, 0.00, 0.00, 0.00
204, 0.00, 4424.51, 0.00, 0.00, 0.00, 0.00, 25234.92, 0.00, 0.00, 0.00, 0.00
205, 0.00, 4421.58, 0.00, 0.00, 0.00, 0.00, 25236.08, 0.00, 0.00, 0.00, 0.00
206, 0.00, 4421.00, 0.00, 0.00, 0.00, 0.00, 25236.71, 0.00, 0.00, 0.00, 0.00
207, 0.00, 4432.62, 0.00, 0.00, 0.00, 0.00, 25244.24, 0.00, 0.00, 0.00, 0.00
208, 0.00, 4434.88, 0.00, 0.00, 0.00, 0.00, 25245.60, 0.00, 0.00, 0.00, 0.00
209, 0.00, 4440.49, 0.00, 0.00, 0.00, 0.00, 25239.39, 0.00, 0.00, 0.00, 0.00
210, 0.00, 4451.84, 0.00, 0.00, 0.00, 0.00, 25224.48, 0.00, -0.74, 0.30, -0.57
211, 0.00, 4441.83, 0.00, 0.00, 0.00, 0.00, 25222.31, 0.00, 0.00, 0.00, 0.00
212, 0.00, 4430.07, 0.00, 0.00, 0.00, 0.00, 25242.40, 0.00, 0.00, 0.00, 0.00
213, 0.00, 4436.69, 0.00, 0.00, 0.00, 0.00, 25244.35, 0.00, 0.00, 0.00, 0.00
214, 0.00, 4445.52, 0.00, 0.00, 0.00, 0.00, 25258.32, 0.00, 0.00, 0.00, 0.00
215, 0.00, 4451.62, 0.00, 0.00, 0.00, 0.00, 25242.92, 0.00, 0.00, 0.00, 0.00
216, 0.00, 4443.21, 0.00, 0.00, 0.00, 0.00, 25229.42, 0.00, 0.00, 0.00, 0.00
217, 0.00, 4445.54, 0.00, 0.00, 0.00, 0.00, 25238.70, 0.00, 0.00, 0.00, 0.00
218, 0.00, 4455.64, 0.00, 0.00, 0.00, 0.00, 25236.50, 0.00, 0.00, 0.00, 0.00
219, 0.00, 4448.31, 0.00, 0.00, 0.00, 0.00, 25240.35, 0.00, 0.00, 0.00, 0.00
220, 0.00, 4439.15, 0.00, 0.00, 0.00, 0.00, 25241.47, 0.00, -0.74, 0.29, -0.57
221, 0.00, 4447.80, 0.00, 0.00, 0.00, 0.00, 25245.00, 0.00, 0.00, 0.00, 0.00
222, 0.00, 4460.49, 0.00, 0.00, 0.00, 0.00, 25244.75, 0.00, 0.00, 0.00, 0.00
223, 0.00, 4460.63, 0.00, 0.00, 0.00, 0.00, 25245.38, 0.00, 0.00, 0.00, 0.00
224, 0.00, 4447.30, 0.00, 0.00, 0.00, 0.00, 25248.62, 0.00, 0.00, 0.00, 0.00
225, 0.00, 4446.23, 0.00, 0.00, 0.00, 0.00, 25242.96, 0.00, 0.00, 0.00, 0.00
226, 0.00, 4451.64, 0.00, 0.00, 0.00, 0.00, 25237.98, 0.00, 0.00, 0.00, 0.00
227, 0.00, 4460.83, 0.00, 0.00, 0.00, 0.00, 25230.07, 0.00, 0.00, 0.00, 0.00
228, 0.00, 4461.94, 0.00, 0.00, 0.00, 0.00, 25233.40, 0.00, 0.00, 0.00, 0.00
229, 0.00, 4459.46, 0.00, 0.00, 0.00, 0.00, 25242.00, 0.00, 0.00, 0.00, 0.00
230, 0.00, 4462.93, 0.00, 0.00, 0.00, 0.00, 25241.80, 0.00, -0.73, 0.29, -0.56
231, 0.00, 4462.62, 0.00, 0.00, 0.00, 0.00, 25235.14, 0.00, 0.00, 0.00, 0.00
232, 0.00, 4451.98, 0.00, 0.00, 0.00, 0.00, 25240.26, 0.00, 0.00, 0.00, 0.00
233, 0.00, 4453.34, 0.00, 0.00, 0.00, 0.00, 25233.58, 0.00, 0.00, 0.00, 0.00
234, 0.00, 4459.98, 0.00, 0.00, 0.00, 0.00, 25252.69, 0.00, 0.00, 0.00, 0.00
235, 0.00, 4459.75, 0.00, 0.00, 0.00, 0.00, 25260.44, 0.00, 0.00, 0.00, 0.00
236, 0.00, 4455.15, 0.00, 0.00, 0.00, 0.00, 25249.38, 0.00, 0.00, 0.00, 0.00
237, 0.00, 4460.76, 0.00, 0.00, 0.00, 0.00, 25240.86, 0.00, 0.00, 0.00, 0.00
238, 0.00, 4463.20, 0.00, 0.00, 0.00, 0.00, 25246.85, 0.00, 0.00, 0.00, 0.00
239, 0.00, 4453.61, 0.00, 0.00, 0.00, 0.00, 25241.13, 0.00, -0.73, 0.29, -0.56
240, 0.00, 4451.60, 0.00, 0.00, 0.00, 0.00, 25240.77, 0.00, 0.00, 0.00, 0.00
241, 0.00, 4451.89, 0.00, 0.00, 0.00, 0.00, 25230.60, 0.00, 0.00, 0.00, 0.00
242, 0.00, 4448.20, 0.00, 0.00, 0.00, 0.00, 25236.41, 0.00, 0.00, 0.00, 0.00
243, 0.00, 4457.03, 0.00, 0.00, 0.00, 0.00, 25256.15, 0.00, 0.00, 0.00, 0.00
244, 0.00, 4464.38, 0.00, 0.00, 0.00, 0.00, 25243.88, 0.00, 0.00, 0.00, 0.00
245, 0.00, 4455.26, 0.00, 0.00, 0.00, 0.00, 25230.36, 0.00, 0.00, 0.00, 0.00
246, 0.00, 4440.15, 0.00, 0.00, 0.00, 0.00, 25226.92, 0.00, 0.00, 0.00, 0.00
247, 0.00, 4438.72, 0.00, 0.00, 0.00, 0.00, 25229.84, 0.00, 0.00, 0.00, 0.00
248, 0.00, 4445.81, 0.00, 0.00, 0.00, 0.00, 25224.70, 0.00, 0.00, 0.00, 0.00
249, 0.00, 4448.96, 0.00, 0.00, 0.00, 0.00, 25225.31, 0.00, -0.74, 0.29, -0.56
250, 0.00, 4448.82, 0.00, 0.00, 0.00, 0.00, 25225.60, 0.00, 0.00, 0.00, 0.00
251, 0.00, 4450.14, 0.00, 0.00, 0.00, 0.00, 25245.20, 0.00, 0.00, 0.00, 0.00
252, 0.00, 4453.47, 0.00, 0.00, 0.00, 0.00, 25250.27, 0.00, 0.00, 0.00, 0.00
253, 0.00, 4448.35, 0.00, 0.00, 0.00, 0.00, 25243.61, 0.00, 0.00, 0.00, 0.00
254, 0.00, 4452.76, 0.00, 0.00, 0.00, 0.00, 25227.32, 0.00, 0.00, 0.00, 0.00
255, 0.00, 4457.34, 0.00, 0.00, 0.00, 0.00, 25225.78, 0.00, 0.00, 0.00, 0.00
0, 0.00, 4452.78, 0.00, 0.00, 0.00, 0.00, 25252.24, 0.00, 0.00, 0.00, 0.00
1, 0.00, 4449.36, 0.00, 0.00, 0.00, 0.00, 25238.52, 0.00, 0.00, 0.00, 0.00
2, 0.00, 4451.82, 0.00, 0.00, 0.00, 0.00, 25237.09, 0.00, 0.00, 0.00, 0.00
3, 0.00, 4459.20, 0.00, 0.00, 0.00, 0.00, 25239.39, 0.00, -0.74, 0.30, -0.56
4, 0.00, 4458.01, 0.00, 0.00, 0.00, 0.00, 25235.48, 0.00, 0.00, 0.00, 0.00
5, 0.00, 4451.95, 0.00, 0.00, 0.00, 0.00, 25228.37, 0.00, 0.00, 0.00, 0.00
6, 0.00, 4477.81, 0.00, 0.00, 0.00, 0.00, 25232.93, 0.00, 0.00, 0.00, 0.00
7, 0.00, 4475.80, 0.00, 0.00, 0.00, 0.00, 25235.70, 0.00, 0.00, 0.00, 0.00
8, 0.00, 4438.07, 0.00, 0.00, 0.00, 0.00, 25239.23, 0.00, 0.00, 0.00, 0.00
9, 0.00, 4423.41, 0.00, 0.00, 0.00, 0.00, 25237.20, 0.00, 0.00, 0.00, 0.00
10, 0.00, 4426.83, 0.00, 0.00, 0.00, 0.00, 25228.05, 0.00, 0.00, 0.00, 0.00
11, 0.00, 4416.84, 0.00, 0.00, 0.00, 0.00, 25244.86, 0.00, 0.00, 0.00, 0.00
12, 0.00, 4417.98, 0.00, 0.00, 0.00, 0.00, 25242.79, 0.00, -0.74, 0.30, -0.56
13, 0.00, 4409.06, 0.00, 0.00, 0.00, 0.00, 25230.45, 0.00, 0.00, 0.00, 0.00
14, 0.00, 4407.14, 0.00, 0.00, 0.00, 0.00, 25229.35, 0.00, 0.00, 0.00, 0.00
15, 0.00, 4400.41, 0.00, 0.00, 0.00, 0.00, 25231.16, 0.00, 0.00, 0.00, 0.00
16, 0.00, 4392.74, 0.00, 0.00, 0.00, 0.00, 25216.10, 0.00, 0.00, 0.00, 0.00
17, 0.00, 4400.28, 0.00, 0.00, 0.00, 0.00, 25212.41, 0.00, 0.00, 0.00, 0.00
18, 0.00, 4396.99, 0.00, 0.00, 0.00, 0.00, 25223.18, 0.00, 0.00, 0.00, 0.00
19, 0.00, 4398.35, 0.00, 0.00, 0.00, 0.00, 25231.27, 0.00, 0.00, 0.00, 0.00
20, 0.00, 4398.76, 0.00, 0.00, 0.00, 0.00, 25232.37, 0.00, 0.00, 0.00, 0.00
21, 0.00, 4407.27, 0.00, 0.00, 0.00, 0.00, 25224.41, 0.00, 0.00, 0.00, 0.00
22, 0.00, 4420.33, 0.00, 0.00, 0.00, 0.00, 25230.45, 0.00, -0.74, 0.30, -0.56
23, 0.00, 4410.83, 0.00, 0.00, 0.00, 0.00, 25230.63, 0.00, 0.00, 0.00, 0.00
24, 0.00, 4400.59, 0.00, 0.00, 0.00, 0.00, 25237.04, 0.00, 0.00, 0.00, 0.00
25, 0.00, 4406.27, 0.00, 0.00, 0.00, 0.00, 25233.40, 0.00, 0.00, 0.00, 0.00
26, 0.00, 4404.37, 0.00, 0.00, 0.00, 0.00, 25234.18, 0.00, 0.00, 0.00, 0.00
27, 0.00, 4401.30, 0.00, 0.00, 0.00, 0.00, 25221.06, 0.00, 0.00, 0.00, 0.00
28, 0.00, 4390.17, 0.00, 0.00, 0.00, 0.00, 25215.49, 0.00, 0.00, 0.00, 0.00
29, 0.00, 4402.27, 0.00, 0.00, 0.00, 0.00, 25220.17, 0.00, 0.00, 0.00, 0.00
30, 0.00, 4409.80, 0.00, 0.00, 0.00, 0.00, 25228.17, 0.00, 0.00, 0.00, 0.00
31, 0.00, 4409.91, 0.00, 0.00, 0.00, 0.00, 25237.62, 0.00, -0.74, 0.30, -0.56
32, 0.00, 4416.64, 0.00, 0.00, 0.00, 0.00, 25236.82, 0.00, 0.00, 0.00, 0.00
33, 0.00, 4404.30, 0.00, 0.00, 0.00, 0.00, 25249.07, 0.00, 0.00, 0.00, 0.00
34, 0.00, 4402.11, 0.00, 0.00, 0.00, 0.00, 25249.63, 0.00, 0.00, 0.00, 0.00
35, 0.00, 4411.41, 0.00, 0.00, 0.00, 0.00, 25234.96, 0.00, 0.00, 0.00, 0.00
36, 0.00, 4415.34, 0.00, 0.00, 0.00, 0.00, 25218.67, 0.00, 0.00, 0.00, 0.00
37, 0.00, 4408.05, 0.00, 0.00, 0.00, 0.00, 25223.29, 0.00, 0.00, 0.00, 0.00
38, 0.00, 4403.87, 0.00, 0.00, 0.00, 0.00, 25221.80, 0.00, 0.00, 0.00, 0.00
39, 0.00, 4415.23, 0.00, 0.00, 0.00, 0.00, 25215.58, 0.00, 0.00, 0.00, 0.00
40, 0.00, 4418.47, 0.00, 0.00, 0.00, 0.00, 25220.52, 0.00, 0.00, 0.00, 0.00
41, 0.00, 4414.00, 0.00, 0.00, 0.00, 0.00, 25228.73, 0.00, -0.74, 0.30, -0.56
42, 0.00, 4415.65, 0.00, 0.00, 0.00, 0.00, 25231.63, 0.00, 0.00, 0.00, 0.00
43, 0.00, 4412.59, 0.00, 0.00, 0.00, 0.00, 25224.32, 0.00, 0.00, 0.00, 0.00
44, 0.00, 4406.40, 0.00, 0.00, 0.00, 0.00, 25197.05, 0.00, 0.00, 0.00, 0.00
45, 0.00, 4407.09, 0.00, 0.00, 0.00, 0.00, 25192.85, 0.00, 0.00, 0.00, 0.00
46, 0.00, 4414.13, 0.00, 0.00, 0.00, 0.00, 25248.69, 0.00, 0.00, 0.00, 0.00
47, 0.00, 4410.65, 0.00, 0.00, 0.00, 0.00, 25250.83, 0.00, 0.00, 0.00, 0.00
48, 0.00, 4405.80, 0.00, 0.00, 0.00, 0.00, 25239.77, 0.00, 0.00, 0.00, 0.00
49, 0.00, 4425.33, 0.00, 0.00, 0.00, 0.00, 25241.91, 0.00, 0.00, 0.00, 0.00
50, 0.00, 4412.37, 0.00, 0.00, 0.00, 0.00, 25236.88, 0.00, 0.00, 0.00, 0.00
51, 0.00, 4393.53, 0.00, 0.00, 0.00, 0.00, 25221.80, 0.00, -0.74, 0.30, -0.56
52, 0.00, 4400.63, 0.00, 0.00, 0.00, 0.00, 25215.22, 0.00, 0.00, 0.00, 0.00
53, 0.00, 4408.57, 0.00, 0.00, 0.00, 0.00, 25227.92, 0.00, 0.00, 0.00, 0.00
54, 0.00, 4409.24, 0.00, 0.00, 0.00, 0.00, 25225.93, 0.00, 0.00, 0.00, 0.00
55, 0.00, 4407.61, 0.00, 0.00, 0.00, 0.00, 25235.97, 0.00, 0.00, 0.00, 0.00
56, 0.00, 4409.35, 0.00, 0.00, 0.00, 0.00, 25234.63, 0.00, 0.00, 0.00, 0.00
57, 0.00, 4409.80, 0.00, 0.00, 0.00, 0.00, 25229.06, 0.00, 0.00, 0.00, 0.00
58, 0.00, 4399.11, 0.00, 0.00, 0.00, 0.00, 25229.73, 0.00, 0.00, 0.00, 0.00
59, 0.00, 4393.44, 0.00, 0.00, 0.00, 0.00, 25228.48, 0.00, 0.00, 0.00, 0.00
60, 0.00, 4400.61, 0.00, 0.00, 0.00, 0.00, 25210.49, 0.00, -0.74, 0.30, -0.56
61, 0.00, 4412.64, 0.00, 0.00, 0.00, 0.00, 25225.42, 0.00, 0.00, 0.00, 0.00
62, 0.00, 4427.46, 0.00, 0.00, 0.00, 0.00, 25232.71, 0.00, 0.00, 0.00, 0.00
63, 0.00, 4419.21, 0.00, 0.00, 0.00, 0.00, 25223.96, 0.00, 0.00, 0.00, 0.00
64, 0.00, 4409.84, 0.00, 0.00, 0.00, 0.00, 25236.08, 0.00, 0.00, 0.00, 0.00
65, 0.00, 4404.72, 0.00, 0.00, 0.00, 0.00, 25243.61, 0.00, 0.00, 0.00, 0.00
66, 0.00, 4398.17, 0.00, 0.00, 0.00, 0.00, 25234.04, 0.00, 0.00, 0.00, 0.00
67, 0.00, 4404.61, 0.00, 0.00, 0.00, 0.00, 25224.19, 0.00, 0.00, 0.00, 0.00
68, 0.00, 4410.85, 0.00, 0.00, 0.00, 0.00, 25216.50, 0.00, 0.00, 0.00, 0.00
69, 0.00, 4405.53, 0.00, 0.00, 0.00, 0.00, 25241.78, 0.00, 0.00, 0.00, 0.00
70, 0.00, 4396.72, 0.00, 0.00, 0.00, 0.00, 25234.40, 0.00, -0.73, 0.30, -0.56
71, 0.00, 4396.81, 0.00, 0.00, 0.00, 0.00, 25253.54, 0.00, 0.00, 0.00, 0.00
72, 0.00, 4409.08, 0.00, 0.00, 0.00, 0.00, 25249.40, 0.00, 0.00, 0.00, 0.00
73, 0.00, 4426.03, 0.00, 0.00, 0.00, 0.00, 25248.26, 0.00, 0.00, 0.00, 0.00
74, 0.00, 4412.41, 0.00, 0.00, 0.00, 0.00, 25252.35, 0.00, 0.00, 0.00, 0.00
75, 0.00, 4411.56, 0.00, 0.00, 0.00, 0.00, 25238.92, 0.00, 0.00, 0.00, 0.00
76, 0.00, 4410.58, 0.00, 0.00, 0.00, 0.00, 25232.46, 0.00, 0.00, 0.00, 0.00
77, 0.00, 4394.78, 0.00, 0.00, 0.00, 0.00, 25239.90, 0.00, 0.00, 0.00, 0.00
78, 0.00, 4393.82, 0.00, 0.00, 0.00, 0.00, 25238.94, 0.00, 0.00, 0.00, 0.00
79, 0.00, 4401.77, 0.00, 0.00, 0.00, 0.00, 25236.28, 0.00, 0.00, 0.00, 0.00
80, 0.00, 4404.86, 0.00, 0.00, 0.00, 0.00, 25244.86, 0.00, -0.74, 0.30, -0.56
81, 0.00, 4411.50, 0.00, 0.00, 0.00, 0.00, 25245.49, 0.00, 0.00, 0.00, 0.00
82, 0.00, 4398.38, 0.00, 0.00, 0.00, 0.00, 25235.52, 0.00, 0.00, 0.00, 0.00
83, 0.00, 4390.75, 0.00, 0.00, 0.00, 0.00, 25233.11, 0.00, 0.00, 0.00, 0.00
84, 0.00, 4405.86, 0.00, 0.00, 0.00, 0.00, 25223.34, 0.00, 0.00, 0.00, 0.00
85, 0.00, 4411.90, 0.00, 0.00, 0.00, 0.00, 25224.23, 0.00, 0.00, 0.00, 0.00
86, 0.00, 4423.37, 0.00, 0.00, 0.00, 0.00, 25241.06, 0.00, 0.00, 0.00, 0.00
87, 0.00, 4416.57, 0.00, 0.00, 0.00, 0.00, 25253.54, 0.00, 0.00, 0.00, 0.00
88, 0.00, 4411.32, 0.00, 0.00, 0.00, 0.00, 25234.56, 0.00, 0.00, 0.00, 0.00
89, 0.00, 4407.00, 0.00, 0.00, 0.00, 0.00, 25241.40, 0.00, -0.73, 0.29, -0.56
90, 0.00, 4407.56, 0.00, 0.00, 0.00, 0.00, 25236.41, 0.00, 0.00, 0.00, 0.00
91, 0.00, 4406.42, 0.00, 0.00, 0.00, 0.00, 25230.18, 0.00, 0.00, 0.00, 0.00
92, 0.00, 4398.29, 0.00, 0.00, 0.00, 0.00, 25227.81, 0.00, 0.00, 0.00, 0.00
93, 0.00, 4394.91, 0.00, 0.00, 0.00, 0.00, 25231.12, 0.00, 0.00, 0.00, 0.00
94, 0.00, 4400.77, 0.00, 0.00, 0.00, 0.00, 25228.44, 0.00, 0.00, 0.00, 0.00
95, 0.00, 4403.36, 0.00, 0.00, 0.00, 0.00, 25233.42, 0.00, 0.00, 0.00, 0.00
96, 0.00, 4412.01, 0.00, 0.00, 0.00, 0.00, 25239.32, 0.00, 0.00, 0.00, 0.00
97, 0.00, 4421.49, 0.00, 0.00, 0.00, 0.00, 25238.65, 0.00, 0.00, 0.00, 0.00
98, 0.00, 4417.11, 0.00, 0.00, 0.00, 0.00, 25233.29, 0.00, 0.00, 0.00, 0.00
99, 0.00, 4417.06, 0.00, 0.00, 0.00, 0.00, 25230.49, 0.00, -0.74, 0.29, -0.56
100, 0.00, 4414.31, 0.00, 0.00, 0.00, 0.00, 25231.01, 0.00, 0.00, 0.00, 0.00
101, 0.00, 4412.73, 0.00, 0.00, 0.00, 0.00, 25225.44, 0.00, 0.00, 0.00, 0.00
102, 0.00, 4411.99, 0.00, 0.00, 0.00, 0.00, 25229.44, 0.00, 0.00, 0.00, 0.00
103, 0.00, 4400.45, 0.00, 0.00, 0.00, 0.00, 25226.33, 0.00, 0.00, 0.00, 0.00
104, 0.00, 4404.99, 0.00, 0.00, 0.00, 0.00, 25233.13, 0.00, 0.00, 0.00, 0.00
105, 0.00, 4403.61, 0.00, 0.00, 0.00, 0.00, 25229.55, 0.00, 0.00, 0.00, 0.00
106, 0.00, 4407.21, 0.00, 0.00, 0.00, 0.00, 25223.47, 0.00, 0.00, 0.00, 0.00
107, 0.00, 4417.69, 0.00, 0.00, 0.00, 0.00, 25239.21, 0.00, 0.00, 0.00, 0.00
108, 0.00, 4422.96, 0.00, 0.00, 0.00, 0.00, 25242.40, 0.00, 0.00, 0.00, 0.00
109, 0.00, 4421.38, 0.00, 0.00, 0.00, 0.00, 25231.72, 0.00, -0.73, 0.30, -0.56
110, 0.00, 4417.31, 0.00, 0.00, 0.00, 0.00, 25225.11, 0.00, 0.00, 0.00, 0.00
111, 0.00, 4410.87, 0.00, 0.00, 0.00, 0.00, 25240.51, 0.00, 0.00, 0.00, 0.00
112, 0.00, 4408.01, 0.00, 0.00, 0.00, 0.00, 25250.85, 0.00, 0.00, 0.00, 0.00
113, 0.00, 4409.91, 0.00, 0.00, 0.00, 0.00, 25247.81, 0.00, 0.00, 0.00, 0.00
114, 0.00, 4417.40, 0.00, 0.00, 0.00, 0.00, 25243.81, 0.00, 0.00, 0.00, 0.00
115, 0.00, 4409.42, 0.00, 0.00, 0.00, 0.00, 25243.23, 0.00, 0.00, 0.00, 0.00
116, 0.00, 4407.63, 0.00, 0.00, 0.00, 0.00, 25247.03, 0.00, 0.00, 0.00, 0.00
117, 0.00, 4407.41, 0.00, 0.00, 0.00, 0.00, 25238.34, 0.00, 0.00, 0.00, 0.00
118, 0.00, 4403.29, 0.00, 0.00, 0.00, 0.00, 25230.45, 0.00, -0.74, 0.29, -0.56
119, 0.00, 4407.70, 0.00, 0.00, 0.00, 0.00, 25241.33, 0.00, 0.00, 0.00, 0.00
120, 0.00, 4405.64, 0.00, 0.00, 0.00, 0.00, 25237.91, 0.00, 0.00, 0.00, 0.00
121, 0.00, 4402.78, 0.00, 0.00, 0.00, 0.00, 25237.94, 0.00, 0.00, 0.00, 0.00
122, 0.00, 4408.08, 0.00, 0.00, 0.00, 0.00, 25250.88, 0.00, 0.00, 0.00, 0.00
123, 0.00, 4402.73, 0.00, 0.00, 0.00, 0.00, 25239.05, 0.00, 0.00, 0.00, 0.00
124, 0.00, 4400.12, 0.00, 0.00, 0.00, 0.00, 25232.97, 0.00, 0.00, 0.00, 0.00
125, 0.00, 4398.62, 0.00, 0.00, 0.00, 0.00, 25233.42, 0.00, 0.00, 0.00, 0.00
126, 0.00, 4402.02, 0.00, 0.00, 0.00, 0.00, 25236.82, 0.00, 0.00, 0.00, 0.00
127, 0.00, 4424.15, 0.00, 0.00, 0.00, 0.00, 25228.68, 0.00, 0.00, 0.00, 0.00
128, 0.00, 4438.81, 0.00, 0.00, 0.00, 0.00, 25218.69, 0.00, -0.74, 0.30, -0.56
129, 0.00, 4414.34, 0.00, 0.00, 0.00, 0.00, 25227.92, 0.00, 0.00, 0.00, 0.00
130, 0.00, 4394.82, 0.00, 0.00, 0.00, 0.00, 25231.39, 0.00, 0.00, 0.00, 0.00
131, 0.00, 4387.63, 0.00, 0.00, 0.00, 0.00, 25231.07, 0.00, 0.00, 0.00, 0.00
132, 0.00, 4400.12, 0.00, 0.00, 0.00, 0.00, 25221.48, 0.00, 0.00, 0.00, 0.00
133, 0.00, 4403.16, 0.00, 0.00, 0.00, 0.00, 25212.83, 0.00, 0.00, 0.00, 0.00
134, 0.00, 4392.74, 0.00, 0.00, 0.00, 0.00, 25209.64, 0.00, 0.00, 0.00, 0.00
135, 0.00, 4398.76, 0.00, 0.00, 0.00, 0.00, 25222.94, 0.00, 0.00, 0.00, 0.00
136, 0.00, 4402.69, 0.00, 0.00, 0.00, 0.00, 25238.79, 0.00, 0.00, 0.00, 0.00
137, 0.00, 4407.54, 0.00, 0.00, 0.00, 0.00, 25237.55, 0.00, 0.00, 0.00, 0.00
138, 0.00, 4410.18, 0.00, 0.00, 0.00, 0.00, 25237.20, 0.00, -0.73, 0.29, -0.56
139, 0.00, 4430.76, 0.00, 0.00, 0.00, 0.00, 25237.64, 0.00, 0.00, 0.00, 0.00
140, 0.00, 4436.64, 0.00, 0.00, 0.00, 0.00, 25230.60, 0.00, 0.00, 0.00, 0.00
141, 0.00, 4422.85, 0.00, 0.00, 0.00, 0.00, 25223.81, 0.00, 0.00, 0.00, 0.00
142, 0.00, 4423.10, 0.00, 0.00, 0.00, 0.00, 25217.97, 0.00, 0.00, 0.00, 0.00
143, 0.00, 4432.82, 0.00, 0.00, 0.00, 0.00, 25203.33, 0.00, 0.00, 0.00, 0.00
144, 0.00, 4436.53, 0.00, 0.00, 0.00, 0.00, 25208.05, 0.00, 0.00, 0.00, 0.00
145, 0.00, 4448.22, 0.00, 0.00, 0.00, 0.00, 25216.95, 0.00, 0.00, 0.00, 0.00
146, 0.00, 4453.79, 0.00, 0.00, 0.00, 0.00, 25222.42, 0.00, 0.00, 0.00, 0.00
147, 0.00, 4452.51, 0.00, 0.00, 0.00, 0.00, 25220.63, 0.00, -0.74, 0.29, -0.56
148, 0.00, 4452.58, 0.00, 0.00, 0.00, 0.00, 25212.32, 0.00, 0.00, 0.00, 0.00
149, 0.00, 4449.65, 0.00, 0.00, 0.00, 0.00, 25209.71, 0.00, 0.00, 0.00, 0.00
150, 0.00, 4460.74, 0.00, 0.00, 0.00, 0.00, 25209.48, 0.00, 0.00, 0.00, 0.00
151, 0.00, 4462.75, 0.00, 0.00, 0.00, 0.00, 25200.88, 0.00, 0.00, 0.00, 0.00
152, 0.00, 4461.03, 0.00, 0.00, 0.00, 0.00, 25202.35, 0.00, 0.00, 0.00, 0.00
153, 0.00, 4454.17, 0.00, 0.00, 0.00, 0.00, 25212.57, 0.00, 0.00, 0.00, 0.00
154, 0.00, 4446.95, 0.00, 0.00, 0.00, 0.00, 25208.54, 0.00, 0.00, 0.00, 0.00
155, 0.00, 4450.48, 0.00, 0.00, 0.00, 0.00, 25208.36, 0.00, 0.00, 0.00, 0.00
156, 0.00, 4454.43, 0.00, 0.00, 0.00, 0.00, 25209.59, 0.00, 0.00, 0.00, 0.00
157, 0.00, 4460.04, 0.00, 0.00, 0.00, 0.00, 25212.95, 0.00, -0.74, 0.28, -0.56
158, 0.00, 4460.20, 0.00, 0.00, 0.00, 0.00, 25211.69, 0.00, 0.00, 0.00, 0.00
159, 0.00, 4459.64, 0.00, 0.00, 0.00, 0.00, 25213.35, 0.00, 0.00, 0.00, 0.00
160, 0.00, 4459.58, 0.00, 0.00, 0.00, 0.00, 25203.69, 0.00, 0.00, 0.00, 0.00
161, 0.00, 4456.24, 0.00, 0.00, 0.00, 0.00, 25200.92, 0.00, 0.00, 0.00, 0.00
162, 0.00, 4454.59, 0.00, 0.00, 0.00, 0.00, 25208.16, 0.00, 0.00, 0.00, 0.00
163, 0.00, 4458.23, 0.00, 0.00, 0.00, 0.00, 25206.31, 0.00, 0.00, 0.00, 0.00
164, 0.00, 4467.06, 0.00, 0.00, 0.00, 0.00, 25197.72, 0.00, 0.00, 0.00, 0.00
165, 0.00, 4465.12, 0.00, 0.00, 0.00, 0.00, 25197.37, 0.00, 0.00, 0.00, 0.00
166, 0.00, 4460.80, 0.00, 0.00, 0.00, 0.00, 25191.73, 0.00, 0.00, 0.00, 0.00
167, 0.00, 4462.32, 0.00, 0.00, 0.00, 0.00, 25188.02, 0.00, -0.74, 0.28, -0.56
168, 0.00, 4449.25, 0.00, 0.00, 0.00, 0.00, 25188.02, 0.00, 0.00, 0.00, 0.00
169, 0.00, 4450.08, 0.00, 0.00, 0.00, 0.00, 25195.00, 0.00, 0.00, 0.00, 0.00
170, 0.00, 4457.85, 0.00, 0.00, 0.00, 0.00, 25203.47, 0.00, 0.00, 0.00, 0.00
171, 0.00, 4454.70, 0.00, 0.00, 0.00, 0.00, 25205.82, 0.00, 0.00, 0.00, 0.00
172, 0.00, 4457.99, 0.00, 0.00, 0.00, 0.00, 25210.04, 0.00, 0.00, 0.00, 0.00
173, 0.00, 4457.68, 0.00, 0.00, 0.00, 0.00, 25202.17, 0.00, 0.00, 0.00, 0.00
174, 0.00, 4457.12, 0.00, 0.00, 0.00, 0.00, 25200.38, 0.00, 0.00, 0.00, 0.00
175, 0.00, 4452.76, 0.00, 0.00, 0.00, 0.00, 25204.38, 0.00, 0.00, 0.00, 0.00
176, 0.00, 4458.28, 0.00, 0.00, 0.00, 0.00, 25200.36, 0.00, -0.74, 0.28, -0.56
177, 0.00, 4462.86, 0.00, 0.00, 0.00, 0.00, 25199.80, 0.00, 0.00, 0.00, 0.00
178, 0.00, 4456.76, 0.00, 0.00, 0.00, 0.00, 25206.93, 0.00, 0.00, 0.00, 0.00
179, 0.00, 4465.23, 0.00, 0.00, 0.00, 0.00, 25212.90, 0.00, 0.00, 0.00, 0.00
180, 0.00, 4464.96, 0.00, 0.00, 0.00, 0.00, 25213.21, 0.00, 0.00, 0.00, 0.00
181, 0.00, 4462.15, 0.00, 0.00, 0.00, 0.00, 25207.74, 0.00, 0.00, 0.00, 0.00
182, 0.00, 4461.94, 0.00, 0.00, 0.00, 0.00, 25200.27, 0.00, 0.00, 0.00, 0.00
183, 0.00, 4459.87, 0.00, 0.00, 0.00, 0.00, 25188.72, 0.00, 0.00, 0.00, 0.00
184, 0.00, 4460.04, 0.00, 0.00, 0.00, 0.00, 25213.50, 0.00, 0.00, 0.00, 0.00
185, 0.00, 4467.00, 0.00, 0.00, 0.00, 0.00, 25233.20, 0.00, 0.00, 0.00, 0.00
186, 0.00, 4463.06, 0.00, 0.00, 0.00, 0.00, 25214.69, 0.00, -0.74, 0.28, -0.56
187, 0.00, 4465.07, 0.00, 0.00, 0.00, 0.00, 25207.40, 0.00, 0.00, 0.00, 0.00
188, 0.00, 4460.47, 0.00, 0.00, 0.00, 0.00, 25211.49, 0.00, 0.00, 0.00, 0.00
189, 0.00, 4460.16, 0.00, 0.00, 0.00, 0.00, 25218.76, 0.00, 0.00, 0.00, 0.00
190, 0.00, 4463.00, 0.00, 0.00, 0.00, 0.00, 25227.36, 0.00, 0.00, 0.00, 0.00
191, 0.00, 4463.82, 0.00, 0.00, 0.00, 0.00, 25222.71, 0.00, 0.00, 0.00, 0.00
192, 0.00, 4462.12, 0.00, 0.00, 0.00, 0.00, 25219.32, 0.00, 0.00, 0.00, 0.00
193, 0.00, 4462.84, 0.00, 0.00, 0.00, 0.00, 25218.67, 0.00, 0.00, 0.00, 0.00
194, 0.00, 4464.34, 0.00, 0.00, 0.00, 0.00, 25212.32, 0.00, 0.00, 0.00, 0.00
195, 0.00, 4456.33, 0.00, 0.00, 0.00, 0.00, 25207.80, 0.00, 0.00, 0.00, 0.00
196, 0.00, 4454.23, 0.00, 0.00, 0.00, 0.00, 25212.30, 0.00, -0.74, 0.29, -0.55
197, 0.00, 4453.09, 0.00, 0.00, 0.00, 0.00, 25205.86, 0.00, 0.00, 0.00, 0.00
198, 0.00, 4449.00, 0.00, 0.00, 0.00, 0.00, 25210.15, 0.00, 0.00, 0.00, 0.00
199, 0.00, 4445.11, 0.00, 0.00, 0.00, 0.00, 25219.88, 0.00, 0.00, 0.00, 0.00
200, 0.00, 4445.11, 0.00, 0.00, 0.00, 0.00, 25222.13, 0.00, 0.00, 0.00, 0.00
201, 0.00, 4457.07, 0.00, 0.00, 0.00, 0.00, 25224.43, 0.00, 0.00, 0.00, 0.00
202, 0.00, 4456.31, 0.00, 0.00, 0.00, 0.00, 25227.32, 0.00, 0.00, 0.00, 0.00
203, 0.00, 4460.80, 0.00, 0.00, 0.00, 0.00, 25221.39, 0.00, 0.00, 0.00, 0.00
204, 0.00, 4453.56, 0.00, 0.00, 0.00, 0.00, 25225.98, 0.00, 0.00, 0.00, 0.00
205, 0.00, 4449.43, 0.00, 0.00, 0.00, 0.00, 25224.23, 0.00, -0.74, 0.29, -0.57
206, 0.00, 4462.70, 0.00, 0.00, 0.00, 0.00, 25203.83, 0.00, 0.00, 0.00, 0.00
207, 0.00, 4472.81, 0.00, 0.00, 0.00, 0.00, 25199.20, 0.00, 0.00, 0.00, 0.00
208, 0.00, 4481.08, 0.00, 0.00, 0.00, 0.00, 25213.06, 0.00, 0.00, 0.00, 0.00
209, 0.00, 4473.21, 0.00, 0.00, 0.00, 0.00, 25221.06, 0.00, 0.00, 0.00, 0.00
210, 0.00, 4472.99, 0.00, 0.00, 0.00, 0.00, 25225.42, 0.00, 0.00, 0.00, 0.00
211, 0.00, 4495.00, 0.00, 0.00, 0.00, 0.00, 25227.99, 0.00, 0.00, 0.00, 0.00
212, 0.00, 4518.87, 0.00, 0.00, 0.00, 0.00, 25223.81, 0.00, 0.00, 0.00, 0.00
213, 0.00, 4528.15, 0.00, 0.00, 0.00, 0.00, 25224.70, 0.00, 0.00, 0.00, 0.00
214, 0.00, 4532.02, 0.00, 0.00, 0.00, 0.00, 25233.96, 0.00, 0.00, 0.00, 0.00
215, 0.00, 4551.78, 0.00, 0.00, 0.00, 0.00, 25228.93, 0.00, -0.74, 0.29, -0.56
216, 0.00, 4562.13, 0.00, 0.00, 0.00, 0.00, 25234.31, 0.00, 0.00, 0.00, 0.00
217, 0.00, 4571.92, 0.00, 0.00, 0.00, 0.00, 25242.79, 0.00, 0.00, 0.00, 0.00
218, 0.00, 4586.91, 0.00, 0.00, 0.00, 0.00, 25239.12, 0.00, 0.00, 0.00, 0.00
219, 0.00, 4585.37, 0.00, 0.00, 0.00, 0.00, 25234.58, 0.00, 0.00, 0.00, 0.00
220, 0.00, 4574.93, 0.00, 0.00, 0.00, 0.00, 25230.71, 0.00, 0.00, 0.00, 0.00
221, 0.00, 4572.90, 0.00, 0.00, 0.00, 0.00, 25222.11, 0.00, 0.00, 0.00, 0.00
222, 0.00, 4578.06, 0.00, 0.00, 0.00, 0.00, 25233.98, 0.00, 0.00, 0.00, 0.00
223, 0.00, 4578.82, 0.00, 0.00, 0.00, 0.00, 25235.21, 0.00, 0.00, 0.00, 0.00
224, 0.00, 4579.45, 0.00, 0.00, 0.00, 0.00, 25232.66, 0.00, 0.00, 0.00, 0.00
225, 0.00, 4582.35, 0.00, 0.00, 0.00, 0.00, 25227.99, 0.00, -0.74, 0.29, -0.56
226, 0.00, 4588.21, 0.00, 0.00, 0.00, 0.00, 25229.73, 0.00, 0.00, 0.00, 0.00
227, 0.00, 4590.36, 0.00, 0.00, 0.00, 0.00, 25233.69, 0.00, 0.00, 0.00, 0.00
228, 0.00, 4584.43, 0.00, 0.00, 0.00, 0.00, 25232.41, 0.00, 0.00, 0.00, 0.00
229, 0.00, 4577.95, 0.00, 0.00, 0.00, 0.00, 25232.71, 0.00, 0.00, 0.00, 0.00
230, 0.00, 4585.08, 0.00, 0.00, 0.00, 0.00, 25230.49, 0.00, 0.00, 0.00, 0.00
231, 0.00, 4580.30, 0.00, 0.00, 0.00, 0.00, 25237.15, 0.00, 0.00, 0.00, 0.00
232, 0.00, 4574.08, 0.00, 0.00, 0.00, 0.00, 25230.45, 0.00, 0.00, 0.00, 0.00
233, 0.00, 4577.93, 0.00, 0.00, 0.00, 0.00, 25232.64, 0.00, 0.00, 0.00, 0.00
234, 0.00, 4575.54, 0.00, 0.00, 0.00, 0.00, 25234.83, 0.00, -0.74, 0.29, -0.56
235, 0.00, 4576.52, 0.00, 0.00, 0.00, 0.00, 25231.86, 0.00, 0.00, 0.00, 0.00
236, 0.00, 4569.95, 0.00, 0.00, 0.00, 0.00, 25228.37, 0.00, 0.00, 0.00, 0.00
237, 0.00, 4567.91, 0.00, 0.00, 0.00, 0.00, 25221.62, 0.00, 0.00, 0.00, 0.00
238, 0.00, 4572.52, 0.00, 0.00, 0.00, 0.00, 25227.25, 0.00, 0.00, 0.00, 0.00
239, 0.00, 4579.05, 0.00, 0.00, 0.00, 0.00, 25227.61, 0.00, 0.00, 0.00, 0.00
240, 0.00, 4581.01, 0.00, 0.00, 0.00, 0.00, 25226.36, 0.00, 0.00, 0.00, 0.00
241, 0.00, 4583.16, 0.00, 0.00, 0.00, 0.00, 25228.64, 0.00, 0.00, 0.00, 0.00
242, 0.00, 4582.64, 0.00, 0.00, 0.00, 0.00, 25229.08, 0.00, 0.00, 0.00, 0.00
243, 0.00, 4583.92, 0.00, 0.00, 0.00, 0.00, 25225.48, 0.00, 0.00, 0.00, 0.00
244, 0.00, 4584.52, 0.00, 0.00, 0.00, 0.00, 25224.08, 0.00, -0.74, 0.29, -0.56
245, 0.00, 4578.06, 0.00, 0.00, 0.00, 0.00, 25211.76, 0.00, 0.00, 0.00, 0.00
246, 0.00, 4576.50, 0.00, 0.00, 0.00, 0.00, 25215.36, 0.00, 0.00, 0.00, 0.00
247, 0.00, 4577.30, 0.00, 0.00, 0.00, 0.00, 25225.04, 0.00, 0.00, 0.00, 0.00
248, 0.00, 4577.46, 0.00, 0.00, 0.00, 0.00, 25226.63, 0.00, 0.00, 0.00, 0.00
249, 0.00, 4570.13, 0.00, 0.00, 0.00, 0.00, 25224.52, 0.00, 0.00, 0.00, 0.00
250, 0.00, 4568.27, 0.00, 0.00, 0.00, 0.00, 25216.99, 0.00, 0.00, 0.00, 0.00
251, 0.00, 4579.02, 0.00, 0.00, 0.00, 0.00, 25205.08, 0.00, 0.00, 0.00, 0.00
252, 0.00, 4581.66, 0.00, 0.00, 0.00, 0.00, 25211.34, 0.00, 0.00, 0.00, 0.00
253, 0.00, 4577.10, 0.00, 0.00, 0.00, 0.00, 25222.09, 0.00, 0.00, 0.00, 0.00
254, 0.00, 4573.03, 0.00, 0.00, 0.00, 0.00, 25210.89, 0.00, -0.74, 0.28, -0.56
255, 0.00, 4568.81, 0.00, 0.00, 0.00, 0.00, 25205.17, 0.00, 0.00, 0.00, 0.00
0, 0.00, 4568.50, 0.00, 0.00, 0.00, 0.00, 25206.15, 0.00, 0.00, 0.00, 0.00
1, 0.00, 4575.69, 0.00, 0.00, 0.00, 0.00, 25225.53, 0.00, 0.00, 0.00, 0.00
2, 0.00, 4581.03, 0.00, 0.00, 0.00, 0.00, 25227.99, 0.00, 0.00, 0.00, 0.00
3, 0.00, 4579.83, 0.00, 0.00, 0.00, 0.00, 25214.38, 0.00, 0.00, 0.00, 0.00
4, 0.00, 4574.78, 0.00, 0.00, 0.00, 0.00, 25218.87, 0.00, 0.00, 0.00, 0.00
5, 0.00, 4576.43, 0.00, 0.00, 0.00, 0.00, 25218.60, 0.00, 0.00, 0.00, 0.00
6, 0.00, 4578.44, 0.00, 0.00, 0.00, 0.00, 25215.92, 0.00, 0.00, 0.00, 0.00
7, 0.00, 4577.06, 0.00, 0.00, 0.00, 0.00, 25212.45, 0.00, -0.73, 0.28, -0.55
8, 0.00, 4571.51, 0.00, 0.00, 0.00, 0.00, 25219.00, 0.00, 0.00, 0.00, 0.00
9, 0.00, 4575.20, 0.00, 0.00, 0.00, 0.00, 25221.53, 0.00, 0.00, 0.00, 0.00
10, 0.00, 4584.32, 0.00, 0.00, 0.00, 0.00, 25223.12, 0.00, 0.00, 0.00, 0.00
11, 0.00, 4591.23, 0.00, 0.00, 0.00, 0.00, 25220.68, 0.00, 0.00, 0.00, 0.00
12, 0.00, 4591.76, 0.00, 0.00, 0.00, 0.00, 25219.03, 0.00, 0.00, 0.00, 0.00
13, 0.00, 4568.43, 0.00, 0.00, 0.00, 0.00, 25225.87, 0.00, 0.00, 0.00, 0.00
14, 0.00, 4556.94, 0.00, 0.00, 0.00, 0.00, 25234.96, 0.00, 0.00, 0.00, 0.00
15, 0.00, 4576.43, 0.00, 0.00, 0.00, 0.00, 25230.60, 0.00, 0.00, 0.00, 0.00
16, 0.00, 4572.92, 0.00, 0.00, 0.00, 0.00, 25225.82, 0.00, 0.00, 0.00, 0.00
17, 0.00, 4567.87, 0.00, 0.00, 0.00, 0.00, 25230.49, 0.00, -0.74, 0.28, -0.56
18, 0.00, 4579.05, 0.00, 0.00, 0.00, 0.00, 25224.43, 0.00, 0.00, 0.00, 0.00
19, 0.00, 4578.71, 0.00, 0.00, 0.00, 0.00, 25219.49, 0.00, 0.00, 0.00, 0.00
20, 0.00, 4574.08, 0.00, 0.00, 0.00, 0.00, 25218.96, 0.00, 0.00, 0.00, 0.00
21, 0.00, 4570.84, 0.00, 0.00, 0.00, 0.00, 25212.05, 0.00, 0.00, 0.00, 0.00
22, 0.00, 4565.37, 0.00, 0.00, 0.00, 0.00, 25212.37, 0.00, 0.00, 0.00, 0.00
23, 0.00, 4573.90, 0.00, 0.00, 0.00, 0.00, 25207.87, 0.00, 0.00, 0.00, 0.00
24, 0.00, 4575.49, 0.00, 0.00, 0.00, 0.00, 25202.73, 0.00, 0.00, 0.00, 0.00
25, 0.00, 4575.58, 0.00, 0.00, 0.00, 0.00, 25208.97, 0.00, 0.00, 0.00, 0.00
26, 0.00, 4579.81, 0.00, 0.00, 0.00, 0.00, 25224.41, 0.00, 0.00, 0.00, 0.00
27, 0.00, 4574.60, 0.00, 0.00, 0.00, 0.00, 25206.75, 0.00, -0.74, 0.28, -0.56
28, 0.00, 4568.38, 0.00, 0.00, 0.00, 0.00, 25211.85, 0.00, 0.00, 0.00, 0.00
29, 0.00, 4564.72, 0.00, 0.00, 0.00, 0.00, 25214.73, 0.00, 0.00, 0.00, 0.00
30, 0.00, 4563.18, 0.00, 0.00, 0.00, 0.00, 25207.58, 0.00, 0.00, 0.00, 0.00
31, 0.00, 4572.61, 0.00, 0.00, 0.00, 0.00, 25219.56, 0.00, 0.00, 0.00, 0.00
32, 0.00, 4572.97, 0.00, 0.00, 0.00, 0.00, 25208.39, 0.00, 0.00, 0.00, 0.00
33, 0.00, 4571.36, 0.00, 0.00, 0.00, 0.00, 25207.13, 0.00, 0.00, 0.00, 0.00
34, 0.00, 4577.99, 0.00, 0.00, 0.00, 0.00, 25220.28, 0.00, 0.00, 0.00, 0.00
35, 0.00, 4579.02, 0.00, 0.00, 0.00, 0.00, 25223.14, 0.00, 0.00, 0.00, 0.00
36, 0.00, 4571.16, 0.00, 0.00, 0.00, 0.00, 25214.80, 0.00, -0.74, 0.28, -0.56
37, 0.00, 4572.00, 0.00, 0.00, 0.00, 0.00, 25210.24, 0.00, 0.00, 0.00, 0.00
38, 0.00, 4572.59, 0.00, 0.00, 0.00, 0.00, 25201.52, 0.00, 0.00, 0.00, 0.00
39, 0.00, 4575.47, 0.00, 0.00, 0.00, 0.00, 25213.13, 0.00, 0.00, 0.00, 0.00
40, 0.00, 4573.93, 0.00, 0.00, 0.00, 0.00, 25218.04, 0.00, 0.00, 0.00, 0.00
41, 0.00, 4574.42, 0.00, 0.00, 0.00, 0.00, 25222.29, 0.00, 0.00, 0.00, 0.00
42, 0.00, 4577.82, 0.00, 0.00, 0.00, 0.00, 25226.42, 0.00, 0.00, 0.00, 0.00
43, 0.00, 4577.41, 0.00, 0.00, 0.00, 0.00, 25217.39, 0.00, 0.00, 0.00, 0.00
44, 0.00, 4570.77, 0.00, 0.00, 0.00, 0.00, 25221.82, 0.00, 0.00, 0.00, 0.00
45, 0.00, 4570.57, 0.00, 0.00, 0.00, 0.00, 25218.44, 0.00, 0.00, 0.00, 0.00
46, 0.00, 4570.42, 0.00, 0.00, 0.00, 0.00, 25217.42, 0.00, -0.74, 0.28, -0.56
47, 0.00, 4567.89, 0.00, 0.00, 0.00, 0.00, 25218.73, 0.00, 0.00, 0.00, 0.00
48, 0.00, 4571.07, 0.00, 0.00, 0.00, 0.00, 25218.31, 0.00, 0.00, 0.00, 0.00
49, 0.00, 4567.31, 0.00, 0.00, 0.00, 0.00, 25223.88, 0.00, 0.00, 0.00, 0.00
50, 0.00, 4567.00, 0.00, 0.00, 0.00, 0.00, 25220.23, 0.00, 0.00, 0.00, 0.00
51, 0.00, 4570.31, 0.00, 0.00, 0.00, 0.00, 25223.34, 0.00, 0.00, 0.00, 0.00
52, 0.00, 4571.69, 0.00, 0.00, 0.00, 0.00, 25234.29, 0.00, 0.00, 0.00, 0.00
53, 0.00, 4568.16, 0.00, 0.00, 0.00, 0.00, 25225.31, 0.00, 0.00, 0.00, 0.00
54, 0.00, 4577.08, 0.00, 0.00, 0.00, 0.00, 25218.96, 0.00, 0.00, 0.00, 0.00
55, 0.00, 4584.01, 0.00, 0.00, 0.00, 0.00, 25214.73, 0.00, 0.00, 0.00, 0.00
56, 0.00, 4594.89, 0.00, 0.00, 0.00, 0.00, 25220.59, 0.00, -0.74, 0.28, -0.56
57, 0.00, 4577.19, 0.00, 0.00, 0.00, 0.00, 25223.85, 0.00, 0.00, 0.00, 0.00
58, 0.00, 4566.01, 0.00, 0.00, 0.00, 0.00, 25223.43, 0.00, 0.00, 0.00, 0.00
59, 0.00, 4559.60, 0.00, 0.00, 0.00, 0.00, 25213.08, 0.00, 0.00, 0.00, 0.00
60, 0.00, 4554.46, 0.00, 0.00, 0.00, 0.00, 25204.63, 0.00, 0.00, 0.00, 0.00
61, 0.00, 4573.46, 0.00, 0.00, 0.00, 0.00, 25210.04, 0.00, 0.00, 0.00, 0.00
62, 0.00, 4586.09, 0.00, 0.00, 0.00, 0.00, 25211.45, 0.00, 0.00, 0.00, 0.00
63, 0.00, 4581.84, 0.00, 0.00, 0.00, 0.00, 25211.18, 0.00, 0.00, 0.00, 0.00
64, 0.00, 4569.68, 0.00, 0.00, 0.00, 0.00, 25201.72, 0.00, 0.00, 0.00, 0.00
65, 0.00, 4564.32, 0.00, 0.00, 0.00, 0.00, 25191.71, 0.00, -0.74, 0.28, -0.56
66, 0.00, 4569.79, 0.00, 0.00, 0.00, 0.00, 25208.36, 0.00, 0.00, 0.00, 0.00
67, 0.00, 4565.59, 0.00, 0.00, 0.00, 0.00, 25204.59, 0.00, 0.00, 0.00, 0.00
68, 0.00, 4565.43, 0.00, 0.00, 0.00, 0.00, 25216.10, 0.00, 0.00, 0.00, 0.00
69, 0.00, 4572.67, 0.00, 0.00, 0.00, 0.00, 25212.39, 0.00, 0.00, 0.00, 0.00
70, 0.00, 4566.06, 0.00, 0.00, 0.00, 0.00, 25209.35, 0.00, 0.00, 0.00, 0.00
71, 0.00, 4571.67, 0.00, 0.00, 0.00, 0.00, 25207.67, 0.00, 0.00, 0.00, 0.00
72, 0.00, 4571.40, 0.00, 0.00, 0.00, 0.00, 25191.73, 0.00, 0.00, 0.00, 0.00
73, 0.00, 4573.64, 0.00, 0.00, 0.00, 0.00, 25202.02, 0.00, 0.00, 0.00, 0.00
74, 0.00, 4576.43, 0.00, 0.00, 0.00, 0.00, 25215.99, 0.00, 0.00, 0.00, 0.00
75, 0.00, 4566.98, 0.00, 0.00, 0.00, 0.00, 25204.79, 0.00, -0.74, 0.29, -0.56
76, 0.00, 4563.85, 0.00, 0.00, 0.00, 0.00, 25196.23, 0.00, 0.00, 0.00, 0.00
77, 0.00, 4563.11, 0.00, 0.00, 0.00, 0.00, 25193.68, 0.00, 0.00, 0.00, 0.00
78, 0.00, 4564.11, 0.00, 0.00, 0.00, 0.00, 25194.97, 0.00, 0.00, 0.00, 0.00
79, 0.00, 4560.11, 0.00, 0.00, 0.00, 0.00, 25196.47, 0.00, 0.00, 0.00, 0.00
80, 0.00, 4566.64, 0.00, 0.00, 0.00, 0.00, 25196.74, 0.00, 0.00, 0.00, 0.00
81, 0.00, 4566.84, 0.00, 0.00, 0.00, 0.00, 25198.51, 0.00, 0.00, 0.00, 0.00
82, 0.00, 4563.98, 0.00, 0.00, 0.00, 0.00, 25199.89, 0.00, 0.00, 0.00, 0.00
83, 0.00, 4566.30, 0.00, 0.00, 0.00, 0.00, 25187.29, 0.00, 0.00, 0.00, 0.00
84, 0.00, 4565.14, 0.00, 0.00, 0.00, 0.00, 25191.85, 0.00, 0.00, 0.00, 0.00
85, 0.00, 4564.54, 0.00, 0.00, 0.00, 0.00, 25201.77, 0.00, -0.74, 0.29, -0.57
86, 0.00, 4565.77, 0.00, 0.00, 0.00, 0.00, 25204.01, 0.00, 0.00, 0.00, 0.00
87, 0.00, 4569.64, 0.00, 0.00, 0.00, 0.00, 25205.19, 0.00, 0.00, 0.00, 0.00
88, 0.00, 4566.82, 0.00, 0.00, 0.00, 0.00, 25217.48, 0.00, 0.00, 0.00, 0.00
89, 0.00, 4567.94, 0.00, 0.00, 0.00, 0.00, 25214.13, 0.00, 0.00, 0.00, 0.00
90, 0.00, 4567.04, 0.00, 0.00, 0.00, 0.00, 25205.10, 0.00, 0.00, 0.00, 0.00
91, 0.00, 4560.02, 0.00, 0.00, 0.00, 0.00, 25208.92, 0.00, 0.00, 0.00, 0.00
92, 0.00, 4561.72, 0.00, 0.00, 0.00, 0.00, 25212.30, 0.00, 0.00, 0.00, 0.00
93, 0.00, 4563.29, 0.00, 0.00, 0.00, 0.00, 25208.47, 0.00, 0.00, 0.00, 0.00
94, 0.00, 4560.85, 0.00, 0.00, 0.00, 0.00, 25211.31, 0.00, -0.74, 0.29, -0.57
95, 0.00, 4560.18, 0.00, 0.00, 0.00, 0.00, 25211.56, 0.00, 0.00, 0.00, 0.00
96, 0.00, 4558.17, 0.00, 0.00, 0.00, 0.00, 25209.77, 0.00, 0.00, 0.00, 0.00
97, 0.00, 4557.70, 0.00, 0.00, 0.00, 0.00, 25205.88, 0.00, 0.00, 0.00, 0.00
98, 0.00, 4556.45, 0.00, 0.00, 0.00, 0.00, 25199.89, 0.00, 0.00, 0.00, 0.00
99, 0.00, 4556.56, 0.00, 0.00, 0.00, 0.00, 25201.75, 0.00, 0.00, 0.00, 0.00
100, 0.00, 4558.82, 0.00, 0.00, 0.00, 0.00, 25194.68, 0.00, 0.00, 0.00, 0.00
101, 0.00, 4559.00, 0.00, 0.00, 0.00, 0.00, 25194.60, 0.00, 0.00, 0.00, 0.00
102, 0.00, 4550.84, 0.00, 0.00, 0.00, 0.00, 25209.06, 0.00, 0.00, 0.00, 0.00
103, 0.00, 4548.92, 0.00, 0.00, 0.00, 0.00, 25199.38, 0.00, 0.00, 0.00, 0.00
104, 0.00, 4548.18, 0.00, 0.00, 0.00, 0.00, 25191.40, 0.00, -0.74, 0.29, -0.57
105, 0.00, 4556.27, 0.00, 0.00, 0.00, 0.00, 25200.23, 0.00, 0.00, 0.00, 0.00
106, 0.00, 4559.33, 0.00, 0.00, 0.00, 0.00, 25197.41, 0.00, 0.00, 0.00, 0.00
107, 0.00, 4562.13, 0.00, 0.00, 0.00, 0.00, 25196.09, 0.00, 0.00, 0.00, 0.00
108, 0.00, 4553.92, 0.00, 0.00, 0.00, 0.00, 25197.95, 0.00, 0.00, 0.00, 0.00
109, 0.00, 4551.87, 0.00, 0.00, 0.00, 0.00, 25200.85, 0.00, 0.00, 0.00, 0.00
110, 0.00, 4552.18, 0.00, 0.00, 0.00, 0.00, 25200.65, 0.00, 0.00, 0.00, 0.00
111, 0.00, 4549.70, 0.00, 0.00, 0.00, 0.00, 25195.56, 0.00, 0.00, 0.00, 0.00
112, 0.00, 4549.88, 0.00, 0.00, 0.00, 0.00, 25192.90, 0.00, 0.00, 0.00, 0.00
113, 0.00, 4551.69, 0.00, 0.00, 0.00, 0.00, 25198.98, 0.00, 0.00, 0.00, 0.00
114, 0.00, 4554.75, 0.00, 0.00, 0.00, 0.00, 25198.33, 0.00, -0.74, 0.29, -0.57
115, 0.00, 4549.52, 0.00, 0.00, 0.00, 0.00, 25199.85, 0.00, 0.00, 0.00, 0.00
116, 0.00, 4545.63, 0.00, 0.00, 0.00, 0.00, 25197.30, 0.00, 0.00, 0.00, 0.00
117, 0.00, 4554.53, 0.00, 0.00, 0.00, 0.00, 25185.45, 0.00, 0.00, 0.00, 0.00
118, 0.00, 4572.67, 0.00, 0.00, 0.00, 0.00, 25176.40, 0.00, 0.00, 0.00, 0.00
119, 0.00, 4569.30, 0.00, 0.00, 0.00, 0.00, 25198.10, 0.00, 0.00, 0.00, 0.00
120, 0.00, 4540.06, 0.00, 0.00, 0.00, 0.00, 25212.45, 0.00, 0.00, 0.00, 0.00
121, 0.00, 4546.48, 0.00, 0.00, 0.00, 0.00, 25209.28, 0.00, 0.00, 0.00, 0.00
122, 0.00, 4548.56, 0.00, 0.00, 0.00, 0.00, 25211.18, 0.00, 0.00, 0.00, 0.00
123, 0.00, 4550.50, 0.00, 0.00, 0.00, 0.00, 25212.63, 0.00, -0.74, 0.28, -0.57
124, 0.00, 4545.36, 0.00, 0.00, 0.00, 0.00, 25217.48, 0.00, 0.00, 0.00, 0.00
125, 0.00, 4540.94, 0.00, 0.00, 0.00, 0.00, 25215.11, 0.00, 0.00, 0.00, 0.00
126, 0.00, 4536.64, 0.00, 0.00, 0.00, 0.00, 25211.45, 0.00, 0.00, 0.00, 0.00
127, 0.00, 4537.92, 0.00, 0.00, 0.00, 0.00, 25203.78, 0.00, 0.00, 0.00, 0.00
128, 0.00, 4548.04, 0.00, 0.00, 0.00, 0.00, 25209.64, 0.00, 0.00, 0.00, 0.00
129, 0.00, 4552.67, 0.00, 0.00, 0.00, 0.00, 25221.46, 0.00, 0.00, 0.00, 0.00
130, 0.00, 4554.75, 0.00, 0.00, 0.00, 0.00, 25223.67, 0.00, 0.00, 0.00, 0.00
131, 0.00, 4549.68, 0.00, 0.00, 0.00, 0.00, 25208.16, 0.00, 0.00, 0.00, 0.00
132, 0.00, 4543.28, 0.00, 0.00, 0.00, 0.00, 25205.57, 0.00, 0.00, 0.00, 0.00
133, 0.00, 4547.08, 0.00, 0.00, 0.00, 0.00, 25220.43, 0.00, -0.74, 0.29, -0.56
134, 0.00, 4543.71, 0.00, 0.00, 0.00, 0.00, 25209.41, 0.00, 0.00, 0.00, 0.00
135, 0.00, 4533.54, 0.00, 0.00, 0.00, 0.00, 25200.99, 0.00, 0.00, 0.00, 0.00
136, 0.00, 4531.23, 0.00, 0.00, 0.00, 0.00, 25202.78, 0.00, 0.00, 0.00, 0.00
137, 0.00, 4540.00, 0.00, 0.00, 0.00, 0.00, 25208.21, 0.00, 0.00, 0.00, 0.00
138, 0.00, 4544.94, 0.00, 0.00, 0.00, 0.00, 25210.84, 0.00, 0.00, 0.00, 0.00
139, 0.00, 4537.69, 0.00, 0.00, 0.00, 0.00, 25207.34, 0.00, 0.00, 0.00, 0.00
140, 0.00, 4533.72, 0.00, 0.00, 0.00, 0.00, 25199.51, 0.00, 0.00, 0.00, 0.00
141, 0.00, 4535.12, 0.00, 0.00, 0.00, 0.00, 25198.42, 0.00, 0.00, 0.00, 0.00
142, 0.00, 4536.62, 0.00, 0.00, 0.00, 0.00, 25188.81, 0.00, 0.00, 0.00, 0.00
143, 0.00, 4531.55, 0.00, 0.00, 0.00, 0.00, 25213.39, 0.00, -0.73, 0.30, -0.56
144, 0.00, 4526.90, 0.00, 0.00, 0.00, 0.00, 25215.74, 0.00, 0.00, 0.00, 0.00
145, 0.00, 4530.61, 0.00, 0.00, 0.00, 0.00, 25200.43, 0.00, 0.00, 0.00, 0.00
146, 0.00, 4536.89, 0.00, 0.00, 0.00, 0.00, 25193.12, 0.00, 0.00, 0.00, 0.00
147, 0.00, 4532.69, 0.00, 0.00, 0.00, 0.00, 25199.20, 0.00, 0.00, 0.00, 0.00
148, 0.00, 4531.55, 0.00, 0.00, 0.00, 0.00, 25200.32, 0.00, 0.00, 0.00, 0.00
149, 0.00, 4538.81, 0.00, 0.00, 0.00, 0.00, 25199.71, 0.00, 0.00, 0.00, 0.00
150, 0.00, 4534.92, 0.00, 0.00, 0.00, 0.00, 25197.84, 0.00, 0.00, 0.00, 0.00
151, 0.00, 4523.59, 0.00, 0.00, 0.00, 0.00, 25197.63, 0.00, 0.00, 0.00, 0.00
152, 0.00, 4535.93, 0.00, 0.00, 0.00, 0.00, 25191.85, 0.00, -0.74, 0.29, -0.56
153, 0.00, 4537.34, 0.00, 0.00, 0.00, 0.00, 25189.90, 0.00, 0.00, 0.00, 0.00
154, 0.00, 4534.95, 0.00, 0.00, 0.00, 0.00, 25191.13, 0.00, 0.00, 0.00, 0.00
155, 0.00, 4537.52, 0.00, 0.00, 0.00, 0.00, 25203.80, 0.00, 0.00, 0.00, 0.00
156, 0.00, 4539.48, 0.00, 0.00, 0.00, 0.00, 25204.05, 0.00, 0.00, 0.00, 0.00
157, 0.00, 4532.04, 0.00, 0.00, 0.00, 0.00, 25189.86, 0.00, 0.00, 0.00, 0.00
158, 0.00, 4535.35, 0.00, 0.00, 0.00, 0.00, 25189.70, 0.00, 0.00, 0.00, 0.00
159, 0.00, 4543.73, 0.00, 0.00, 0.00, 0.00, 25203.67, 0.00, 0.00, 0.00, 0.00
160, 0.00, 4534.12, 0.00, 0.00, 0.00, 0.00, 25189.97, 0.00, 0.00, 0.00, 0.00
161, 0.00, 4529.63, 0.00, 0.00, 0.00, 0.00, 25175.73, 0.00, 0.00, 0.00, 0.00
162, 0.00, 4526.09, 0.00, 0.00, 0.00, 0.00, 25192.36, 0.00, -0.73, 0.29, -0.56
163, 0.00, 4526.03, 0.00, 0.00, 0.00, 0.00, 25202.46, 0.00, 0.00, 0.00, 0.00
164, 0.00, 4526.70, 0.00, 0.00, 0.00, 0.00, 25200.79, 0.00, 0.00, 0.00, 0.00
165, 0.00, 4529.38, 0.00, 0.00, 0.00, 0.00, 25197.59, 0.00, 0.00, 0.00, 0.00
166, 0.00, 4536.93, 0.00, 0.00, 0.00, 0.00, 25199.60, 0.00, 0.00, 0.00, 0.00
167, 0.00, 4538.61, 0.00, 0.00, 0.00, 0.00, 25195.06, 0.00, 0.00, 0.00, 0.00
168, 0.00, 4537.69, 0.00, 0.00, 0.00, 0.00, 25190.79, 0.00, 0.00, 0.00, 0.00
169, 0.00, 4534.83, 0.00, 0.00, 0.00, 0.00, 25194.91, 0.00, 0.00, 0.00, 0.00
170, 0.00, 4531.21, 0.00, 0.00, 0.00, 0.00, 25196.76, 0.00, 0.00, 0.00, 0.00
171, 0.00, 4531.10, 0.00, 0.00, 0.00, 0.00, 25198.57, 0.00, -0.73, 0.30, -0.56
172, 0.00, 4527.14, 0.00, 0.00, 0.00, 0.00, 25200.38, 0.00, 0.00, 0.00, 0.00
173, 0.00, 4534.41, 0.00, 0.00, 0.00, 0.00, 25201.68, 0.00, 0.00, 0.00, 0.00
174, 0.00, 4536.91, 0.00, 0.00, 0.00, 0.00, 25202.89, 0.00, 0.00, 0.00, 0.00
175, 0.00, 4533.22, 0.00, 0.00, 0.00, 0.00, 25205.50, 0.00, 0.00, 0.00, 0.00
176, 0.00, 4534.59, 0.00, 0.00, 0.00, 0.00, 25196.34, 0.00, 0.00, 0.00, 0.00
177, 0.00, 4531.35, 0.00, 0.00, 0.00, 0.00, 25192.00, 0.00, 0.00, 0.00, 0.00
178, 0.00, 4526.63, 0.00, 0.00, 0.00, 0.00, 25193.75, 0.00, 0.00, 0.00, 0.00
179, 0.00, 4525.42, 0.00, 0.00, 0.00, 0.00, 25200.72, 0.00, 0.00, 0.00, 0.00
180, 0.00, 4527.08, 0.00, 0.00, 0.00, 0.00, 25208.92, 0.00, 0.00, 0.00, 0.00
181, 0.00, 4530.30, 0.00, 0.00, 0.00, 0.00, 25207.22, 0.00, -0.74, 0.29, -0.57
182, 0.00, 4536.64, 0.00, 0.00, 0.00, 0.00, 25198.93, 0.00, 0.00, 0.00, 0.00
183, 0.00, 4530.05, 0.00, 0.00, 0.00, 0.00, 25187.73, 0.00, 0.00, 0.00, 0.00
184, 0.00, 4530.34, 0.00, 0.00, 0.00, 0.00, 25193.57, 0.00, 0.00, 0.00, 0.00
185, 0.00, 4531.59, 0.00, 0.00, 0.00, 0.00, 25190.62, 0.00, 0.00, 0.00, 0.00
186, 0.00, 4526.43, 0.00, 0.00, 0.00, 0.00, 25195.13, 0.00, 0.00, 0.00, 0.00
187, 0.00, 4522.81, 0.00, 0.00, 0.00, 0.00, 25195.51, 0.00, 0.00, 0.00, 0.00
188, 0.00, 4518.25, 0.00, 0.00, 0.00, 0.00, 25191.00, 0.00, 0.00, 0.00, 0.00
189, 0.00, 4511.88, 0.00, 0.00, 0.00, 0.00, 25184.45, 0.00, 0.00, 0.00, 0.00
190, 0.00, 4517.65, 0.00, 0.00, 0.00, 0.00, 25183.42, 0.00, 0.00, 0.00, 0.00
191, 0.00, 4518.16, 0.00, 0.00, 0.00, 0.00, 25173.23, 0.00, -0.74, 0.29, -0.57
192, 0.00, 4525.76, 0.00, 0.00, 0.00, 0.00, 25184.47, 0.00, 0.00, 0.00, 0.00
193, 0.00, 4527.10, 0.00, 0.00, 0.00, 0.00, 25191.49, 0.00, 0.00, 0.00, 0.00
194, 0.00, 4524.62, 0.00, 0.00, 0.00, 0.00, 25193.63, 0.00, 0.00, 0.00, 0.00
195, 0.00, 4517.11, 0.00, 0.00, 0.00, 0.00, 25185.34, 0.00, 0.00, 0.00, 0.00
196, 0.00, 4514.81, 0.00, 0.00, 0.00, 0.00, 25189.52, 0.00, 0.00, 0.00, 0.00
197, 0.00, 4520.15, 0.00, 0.00, 0.00, 0.00, 25190.66, 0.00, 0.00, 0.00, 0.00
198, 0.00, 4518.27, 0.00, 0.00, 0.00, 0.00, 25188.81, 0.00, 0.00, 0.00, 0.00
199, 0.00, 4527.12, 0.00, 0.00, 0.00, 0.00, 25182.77, 0.00, 0.00, 0.00, 0.00
200, 0.00, 4529.89, 0.00, 0.00, 0.00, 0.00, 25180.42, 0.00, -0.74, 0.30, -0.56
201, 0.00, 4524.26, 0.00, 0.00, 0.00, 0.00, 25174.05, 0.00, 0.00, 0.00, 0.00
202, 0.00, 4523.34, 0.00, 0.00, 0.00, 0.00, 25186.35, 0.00, 0.00, 0.00, 0.00
203, 0.00, 4522.25, 0.00, 0.00, 0.00, 0.00, 25193.03, 0.00, 0.00, 0.00, 0.00
204, 0.00, 4521.96, 0.00, 0.00, 0.00, 0.00, 25188.07, 0.00, 0.00, 0.00, 0.00
205, 0.00, 4527.52, 0.00, 0.00, 0.00, 0.00, 25177.94, 0.00, 0.00, 0.00, 0.00
206, 0.00, 4522.83, 0.00, 0.00, 0.00, 0.00, 25187.38, 0.00, 0.00, 0.00, 0.00
207, 0.00, 4521.74, 0.00, 0.00, 0.00, 0.00, 25213.57, 0.00, 0.00, 0.00, 0.00
208, 0.00, 4522.50, 0.00, 0.00, 0.00, 0.00, 25207.83, 0.00, 0.00, 0.00, 0.00
209, 0.00, 4520.46, 0.00, 0.00, 0.00, 0.00, 25193.72, 0.00, 0.00, 0.00, 0.00
210, 0.00, 4515.68, 0.00, 0.00, 0.00, 0.00, 25186.86, 0.00, -0.73, 0.30, -0.56
211, 0.00, 4512.79, 0.00, 0.00, 0.00, 0.00, 25190.06, 0.00, 0.00, 0.00, 0.00
212, 0.00, 4509.64, 0.00, 0.00, 0.00, 0.00, 25202.78, 0.00, 0.00, 0.00, 0.00
213, 0.00, 4512.57, 0.00, 0.00, 0.00, 0.00, 25198.64, 0.00, 0.00, 0.00, 0.00
214, 0.00, 4517.24, 0.00, 0.00, 0.00, 0.00, 25195.98, 0.00, 0.00, 0.00, 0.00
215, 0.00, 4513.80, 0.00, 0.00, 0.00, 0.00, 25193.61, 0.00, 0.00, 0.00, 0.00
216, 0.00, 4504.75, 0.00, 0.00, 0.00, 0.00, 25190.84, 0.00, 0.00, 0.00, 0.00
217, 0.00, 4501.80, 0.00, 0.00, 0.00, 0.00, 25191.67, 0.00, 0.00, 0.00, 0.00
218, 0.00, 4505.31, 0.00, 0.00, 0.00, 0.00, 25190.06, 0.00, 0.00, 0.00, 0.00
219, 0.00, 4514.20, 0.00, 0.00, 0.00, 0.00, 25191.11, 0.00, 0.00, 0.00, 0.00
220, 0.00, 4516.35, 0.00, 0.00, 0.00, 0.00, 25189.70, 0.00, -0.73, 0.29, -0.57
221, 0.00, 4509.04, 0.00, 0.00, 0.00, 0.00, 25177.92, 0.00, 0.00, 0.00, 0.00
222, 0.00, 4508.19, 0.00, 0.00, 0.00, 0.00, 25184.51, 0.00, 0.00, 0.00, 0.00
223, 0.00, 4505.49, 0.00, 0.00, 0.00, 0.00, 25198.04, 0.00, 0.00, 0.00, 0.00
224, 0.00, 4502.27, 0.00, 0.00, 0.00, 0.00, 25195.42, 0.00, 0.00, 0.00, 0.00
225, 0.00, 4501.62, 0.00, 0.00, 0.00, 0.00, 25194.73, 0.00, 0.00, 0.00, 0.00
226, 0.00, 4506.69, 0.00, 0.00, 0.00, 0.00, 25190.15, 0.00, 0.00, 0.00, 0.00
227, 0.00, 4512.57, 0.00, 0.00, 0.00, 0.00, 25195.27, 0.00, 0.00, 0.00, 0.00
228, 0.00, 4509.46, 0.00, 0.00, 0.00, 0.00, 25204.90, 0.00, 0.00, 0.00, 0.00
229, 0.00, 4505.69, 0.00, 0.00, 0.00, 0.00, 25197.86, 0.00, -0.74, 0.29, -0.56
230, 0.00, 4507.10, 0.00, 0.00, 0.00, 0.00, 25195.94, 0.00, 0.00, 0.00, 0.00
231, 0.00, 4503.27, 0.00, 0.00, 0.00, 0.00, 25197.79, 0.00, 0.00, 0.00, 0.00
232, 0.00, 4500.55, 0.00, 0.00, 0.00, 0.00, 25183.71, 0.00, 0.00, 0.00, 0.00
233, 0.00, 4502.22, 0.00, 0.00, 0.00, 0.00, 25174.90, 0.00, 0.00, 0.00, 0.00
234, 0.00, 4498.69, 0.00, 0.00, 0.00, 0.00, 25183.29, 0.00, 0.00, 0.00, 0.00
235, 0.00, 4502.69, 0.00, 0.00, 0.00, 0.00, 25197.97, 0.00, 0.00, 0.00, 0.00
236, 0.00, 4503.54, 0.00, 0.00, 0.00, 0.00, 25198.91, 0.00, 0.00, 0.00, 0.00
237, 0.00, 4499.94, 0.00, 0.00, 0.00, 0.00, 25198.06, 0.00, 0.00, 0.00, 0.00
238, 0.00, 4507.30, 0.00, 0.00, 0.00, 0.00, 25192.79, 0.00, 0.00, 0.00, 0.00
239, 0.00, 4512.75, 0.00, 0.00, 0.00, 0.00, 25201.10, 0.00, -0.73, 0.29, -0.55
240, 0.00, 4506.98, 0.00, 0.00, 0.00, 0.00, 25200.12, 0.00, 0.00, 0.00, 0.00
241, 0.00, 4499.41, 0.00, 0.00, 0.00, 0.00, 25190.77, 0.00, 0.00, 0.00, 0.00
242, 0.00, 4512.91, 0.00, 0.00, 0.00, 0.00, 25185.45, 0.00, 0.00, 0.00, 0.00
243, 0.00, 4520.37, 0.00, 0.00, 0.00, 0.00, 25181.94, 0.00, 0.00, 0.00, 0.00
244, 0.00, 4514.90, 0.00, 0.00, 0.00, 0.00, 25189.95, 0.00, 0.00, 0.00, 0.00
245, 0.00, 4506.42, 0.00, 0.00, 0.00, 0.00, 25191.64, 0.00, 0.00, 0.00, 0.00
246, 0.00, 4505.51, 0.00, 0.00, 0.00, 0.00, 25178.35, 0.00, 0.00, 0.00, 0.00
247, 0.00, 4522.34, 0.00, 0.00, 0.00, 0.00, 25184.78, 0.00, 0.00, 0.00, 0.00
248, 0.00, 4517.82, 0.00, 0.00, 0.00, 0.00, 25197.32, 0.00, 0.00, 0.00, 0.00
249, 0.00, 4490.60, 0.00, 0.00, 0.00, 0.00, 25200.67, 0.00, -0.74, 0.30, -0.56
250, 0.00, 4504.86, 0.00, 0.00, 0.00, 0.00, 25203.22, 0.00, 0.00, 0.00, 0.00
251, 0.00, 4515.23, 0.00, 0.00, 0.00, 0.00, 25196.14, 0.00, 0.00, 0.00, 0.00
252, 0.00, 4513.78, 0.00, 0.00, 0.00, 0.00, 25190.17, 0.00, 0.00, 0.00, 0.00
253, 0.00, 4514.00, 0.00, 0.00, 0.00, 0.00, 25179.73, 0.00, 0.00, 0.00, 0.00
254, 0.00, 4519.32, 0.00, 0.00, 0.00, 0.00, 25181.54, 0.00, 0.00, 0.00, 0.00
255, 0.00, 4518.38, 0.00, 0.00, 0.00, 0.00, 25189.92, 0.00, 0.00, 0.00, 0.00
0, 0.00, 4510.67, 0.00, 0.00, 0.00, 0.00, 25184.96, 0.00, 0.00, 0.00, 0.00
1, 0.00, 4515.25, 0.00, 0.00, 0.00, 0.00, 25185.50, 0.00, 0.00, 0.00, 0.00
2, 0.00, 4514.34, 0.00, 0.00, 0.00, 0.00, 25184.45, 0.00, -0.74, 0.30, -0.56
3, 0.00, 4510.58, 0.00, 0.00, 0.00, 0.00, 25187.44, 0.00, 0.00, 0.00, 0.00
4, 0.00, 4517.76, 0.00, 0.00, 0.00, 0.00, 25187.46, 0.00, 0.00, 0.00, 0.00
5, 0.00, 4525.18, 0.00, 0.00, 0.00, 0.00, 25196.12, 0.00, 0.00, 0.00, 0.00
6, 0.00, 4526.54, 0.00, 0.00, 0.00, 0.00, 25197.25, 0.00, 0.00, 0.00, 0.00
7, 0.00, 4532.78, 0.00, 0.00, 0.00, 0.00, 25198.48, 0.00, 0.00, 0.00, 0.00
8, 0.00, 4539.71, 0.00, 0.00, 0.00, 0.00, 25206.62, 0.00, 0.00, 0.00, 0.00
9, 0.00, 4549.54, 0.00, 0.00, 0.00, 0.00, 25217.86, 0.00, 0.00, 0.00, 0.00
10, 0.00, 4541.16, 0.00, 0.00, 0.00, 0.00, 25207.47, 0.00, 0.00, 0.00, 0.00
11, 0.00, 4531.91, 0.00, 0.00, 0.00, 0.00, 25191.89, 0.00, 0.00, 0.00, 0.00
12, 0.00, 4523.57, 0.00, 0.00, 0.00, 0.00, 25182.32, 0.00, -0.74, 0.29, -0.57
13, 0.00, 4511.50, 0.00, 0.00, 0.00, 0.00, 25171.95, 0.00, 0.00, 0.00, 0.00
14, 0.00, 4509.64, 0.00, 0.00, 0.00, 0.00, 25167.59, 0.00, 0.00, 0.00, 0.00
15, 0.00, 4519.77, 0.00, 0.00, 0.00, 0.00, 25165.67, 0.00, 0.00, 0.00, 0.00
16, 0.00, 4510.13, 0.00, 0.00, 0.00, 0.00, 25161.43, 0.00, 0.00, 0.00, 0.00
17, 0.00, 4498.36, 0.00, 0.00, 0.00, 0.00, 25160.66, 0.00, 0.00, 0.00, 0.00
18, 0.00, 4501.04, 0.00, 0.00, 0.00, 0.00, 25166.41, 0.00, 0.00, 0.00, 0.00
19, 0.00, 4505.24, 0.00, 0.00, 0.00, 0.00, 25171.15, 0.00, 0.00, 0.00, 0.00
20, 0.00, 4503.72, 0.00, 0.00, 0.00, 0.00, 25171.51, 0.00, 0.00, 0.00, 0.00
21, 0.00, 4510.76, 0.00, 0.00, 0.00, 0.00, 25182.55, 0.00, 0.00, 0.00, 0.00
22, 0.00, 4512.77, 0.00, 0.00, 0.00, 0.00, 25186.17, 0.00, -0.73, 0.29, -0.57
23, 0.00, 4514.00, 0.00, 0.00, 0.00, 0.00, 25179.55, 0.00, 0.00, 0.00, 0.00
24, 0.00, 4508.66, 0.00, 0.00, 0.00, 0.00, 25179.40, 0.00, 0.00, 0.00, 0.00
25, 0.00, 4502.13, 0.00, 0.00, 0.00, 0.00, 25192.36, 0.00, 0.00, 0.00, 0.00
26, 0.00, 4502.11, 0.00, 0.00, 0.00, 0.00, 25188.72, 0.00, 0.00, 0.00, 0.00
27, 0.00, 4495.14, 0.00, 0.00, 0.00, 0.00, 25166.50, 0.00, 0.00, 0.00, 0.00
28, 0.00, 4498.44, 0.00, 0.00, 0.00, 0.00, 25157.96, 0.00, 0.00, 0.00, 0.00
29, 0.00, 4480.88, 0.00, 0.00, 0.00, 0.00, 25172.02, 0.00, 0.00, 0.00, 0.00
30, 0.00, 4439.84, 0.00, 0.00, 0.00, 0.00, 25167.35, 0.00, 0.00, 0.00, 0.00
31, 0.00, 4404.21, 0.00, 0.00, 0.00, 0.00, 25168.31, 0.00, -0.73, 0.29, -0.58
32, 0.00, 4380.92, 0.00, 0.00, 0.00, 0.00, 25158.09, 0.00, 0.00, 0.00, 0.00
33, 0.00, 4345.16, 0.00, 0.00, 0.00, 0.00, 25159.77, 0.00, 0.00, 0.00, 0.00
34, 0.00, 4302.38, 0.00, 0.00, 0.00, 0.00, 25184.67, 0.00, 0.00, 0.00, 0.00
35, 0.00, 4258.77, 0.00, 0.00, 0.00, 0.00, 25190.39, 0.00, 0.00, 0.00, 0.00
36, 0.00, 4224.23, 0.00, 0.00, 0.00, 0.00, 25187.38, 0.00, 0.00, 0.00, 0.00
37, 0.00, 4188.05, 0.00, 0.00, 0.00, 0.00, 25183.80, 0.00, 0.00, 0.00, 0.00
38, 0.00, 4146.32, 0.00, 0.00, 0.00, 0.00, 25183.51, 0.00, 0.00, 0.00, 0.00
39, 0.00, 4120.61, 0.00, 0.00, 0.00, 0.00, 25183.02, 0.00, 0.00, 0.00, 0.00
40, 0.00, 4112.05, 0.00, 0.00, 0.00, 0.00, 25173.79, 0.00, 0.00, 0.00, 0.00
41, 0.00, 4105.41, 0.00, 0.00, 0.00, 0.00, 25172.13, 0.00, -0.73, 0.29, -0.58
42, 0.00, 4073.52, 0.00, 0.00, 0.00, 0.00, 25189.19, 0.00, 0.00, 0.00, 0.00
43, 0.00, 4064.02, 0.00, 0.00, 0.00, 0.00, 25210.62, 0.00, 0.00, 0.00, 0.00
44, 0.00, 4045.93, 0.00, 0.00, 0.00, 0.00, 25199.62, 0.00, 0.00, 0.00, 0.00
45, 0.00, 4059.14, 0.00, 0.00, 0.00, 0.00, 25199.76, 0.00, 0.00, 0.00, 0.00
46, 0.00, 4061.29, 0.00, 0.00, 0.00, 0.00, 25199.45, 0.00, 0.00, 0.00, 0.00
47, 0.00, 4060.66, 0.00, 0.00, 0.00, 0.00, 25189.72, 0.00, 0.00, 0.00, 0.00
48, 0.00, 4070.16, 0.00, 0.00, 0.00, 0.00, 25188.92, 0.00, 0.00, 0.00, 0.00
49, 0.00, 4072.78, 0.00, 0.00, 0.00, 0.00, 25207.63, 0.00, 0.00, 0.00, 0.00
50, 0.00, 4075.33, 0.00, 0.00, 0.00, 0.00, 25207.13, 0.00, 0.00, 0.00, 0.00
51, 0.00, 4076.78, 0.00, 0.00, 0.00, 0.00, 25202.13, 0.00, -0.72, 0.28, -0.58
52, 0.00, 4093.21, 0.00, 0.00, 0.00, 0.00, 25202.73, 0.00, 0.00, 0.00, 0.00
53, 0.00, 4107.85, 0.00, 0.00, 0.00, 0.00, 25205.62, 0.00, 0.00, 0.00, 0.00
54, 0.00, 4128.81, 0.00, 0.00, 0.00, 0.00, 25204.77, 0.00, 0.00, 0.00, 0.00
55, 0.00, 4139.95, 0.00, 0.00, 0.00, 0.00, 25207.00, 0.00, 0.00, 0.00, 0.00
56, 0.00, 4139.88, 0.00, 0.00, 0.00, 0.00, 25196.54, 0.00, 0.00, 0.00, 0.00
57, 0.00, 4153.71, 0.00, 0.00, 0.00, 0.00, 25183.78, 0.00, 0.00, 0.00, 0.00
58, 0.00, 4168.73, 0.00, 0.00, 0.00, 0.00, 25178.99, 0.00, 0.00, 0.00, 0.00
59, 0.00, 4184.94, 0.00, 0.00, 0.00, 0.00, 25184.69, 0.00, 0.00, 0.00, 0.00
60, 0.00, 4197.14, 0.00, 0.00, 0.00, 0.00, 25195.82, 0.00, -0.73, 0.28, -0.58
61, 0.00, 4211.98, 0.00, 0.00, 0.00, 0.00, 25182.88, 0.00, 0.00, 0.00, 0.00
62, 0.00, 4217.64, 0.00, 0.00, 0.00, 0.00, 25184.74, 0.00, 0.00, 0.00, 0.00
63, 0.00, 4216.57, 0.00, 0.00, 0.00, 0.00, 25186.88, 0.00, 0.00, 0.00, 0.00
64, 0.00, 4221.69, 0.00, 0.00, 0.00, 0.00, 25174.23, 0.00, 0.00, 0.00, 0.00
65, 0.00, 4232.21, 0.00, 0.00, 0.00, 0.00, 25182.17, 0.00, 0.00, 0.00, 0.00
66, 0.00, 4241.89, 0.00, 0.00, 0.00, 0.00, 25198.55, 0.00, 0.00, 0.00, 0.00
67, 0.00, 4252.82, 0.00, 0.00, 0.00, 0.00, 25210.04, 0.00, 0.00, 0.00, 0.00
68, 0.00, 4253.83, 0.00, 0.00, 0.00, 0.00, 25199.38, 0.00, 0.00, 0.00, 0.00
69, 0.00, 4247.57, 0.00, 0.00, 0.00, 0.00, 25189.25, 0.00, 0.00, 0.00, 0.00
70, 0.00, 4255.50, 0.00, 0.00, 0.00, 0.00, 25184.13, 0.00, -0.74, 0.28, -0.58
71, 0.00, 4267.31, 0.00, 0.00, 0.00, 0.00, 25184.98, 0.00, 0.00, 0.00, 0.00
72, 0.00, 4280.83, 0.00, 0.00, 0.00, 0.00, 25201.55, 0.00, 0.00, 0.00, 0.00
73, 0.00, 4291.00, 0.00, 0.00, 0.00, 0.00, 25201.26, 0.00, 0.00, 0.00, 0.00
74, 0.00, 4292.45, 0.00, 0.00, 0.00, 0.00, 25195.71, 0.00, 0.00, 0.00, 0.00
75, 0.00, 4299.56, 0.00, 0.00, 0.00, 0.00, 25183.31, 0.00, 0.00, 0.00, 0.00
76, 0.00, 4307.54, 0.00, 0.00, 0.00, 0.00, 25186.12, 0.00, 0.00, 0.00, 0.00
77, 0.00, 4307.52, 0.00, 0.00, 0.00, 0.00, 25187.91, 0.00, 0.00, 0.00, 0.00
78, 0.00, 4313.51, 0.00, 0.00, 0.00, 0.00, 25181.94, 0.00, 0.00, 0.00, 0.00
79, 0.00, 4299.80, 0.00, 0.00, 0.00, 0.00, 25167.68, 0.00, 0.00, 0.00, 0.00
80, 0.00, 4286.57, 0.00, 0.00, 0.00, 0.00, 25175.80, 0.00, -0.73, 0.27, -0.58
81, 0.00, 4297.66, 0.00, 0.00, 0.00, 0.00, 25176.13, 0.00, 0.00, 0.00, 0.00
82, 0.00, 4313.84, 0.00, 0.00, 0.00, 0.00, 25173.23, 0.00, 0.00, 0.00, 0.00
83, 0.00, 4314.80, 0.00, 0.00, 0.00, 0.00, 25158.52, 0.00, 0.00, 0.00, 0.00
84, 0.00, 4323.36, 0.00, 0.00, 0.00, 0.00, 25163.41, 0.00, 0.00, 0.00, 0.00
85, 0.00, 4335.21, 0.00, 0.00, 0.00, 0.00, 25172.60, 0.00, 0.00, 0.00, 0.00
86, 0.00, 4331.77, 0.00, 0.00, 0.00, 0.00, 25159.37, 0.00, 0.00, 0.00, 0.00
87, 0.00, 4335.23, 0.00, 0.00, 0.00, 0.00, 25162.25, 0.00, 0.00, 0.00, 0.00
88, 0.00, 4329.67, 0.00, 0.00, 0.00, 0.00, 25179.55, 0.00, 0.00, 0.00, 0.00
89, 0.00, 4333.85, 0.00, 0.00, 0.00, 0.00, 25179.64, 0.00, -0.73, 0.27, -0.58
90, 0.00, 4342.25, 0.00, 0.00, 0.00, 0.00, 25176.00, 0.00, 0.00, 0.00, 0.00
91, 0.00, 4338.72, 0.00, 0.00, 0.00, 0.00, 25184.51, 0.00, 0.00, 0.00, 0.00
92, 0.00, 4335.32, 0.00, 0.00, 0.00, 0.00, 25171.13, 0.00, 0.00, 0.00, 0.00
93, 0.00, 4339.55, 0.00, 0.00, 0.00, 0.00, 25165.94, 0.00, 0.00, 0.00, 0.00
94, 0.00, 4342.47, 0.00, 0.00, 0.00, 0.00, 25165.11, 0.00, 0.00, 0.00, 0.00
95, 0.00, 4345.40, 0.00, 0.00, 0.00, 0.00, 25156.69, 0.00, 0.00, 0.00, 0.00
96, 0.00, 4342.36, 0.00, 0.00, 0.00, 0.00, 25183.53, 0.00, 0.00, 0.00, 0.00
97, 0.00, 4354.88, 0.00, 0.00, 0.00, 0.00, 25175.95, 0.00, 0.00, 0.00, 0.00
98, 0.00, 4364.38, 0.00, 0.00, 0.00, 0.00, 25165.25, 0.00, 0.00, 0.00, 0.00
99, 0.00, 4361.36, 0.00, 0.00, 0.00, 0.00, 25164.22, 0.00, -0.72, 0.27, -0.58
100, 0.00, 4338.00, 0.00, 0.00, 0.00, 0.00, 25168.58, 0.00, 0.00, 0.00, 0.00
101, 0.00, 4330.23, 0.00, 0.00, 0.00, 0.00, 25176.67, 0.00, 0.00, 0.00, 0.00
102, 0.00, 4329.71, 0.00, 0.00, 0.00, 0.00, 25184.63, 0.00, 0.00, 0.00, 0.00
103, 0.00, 4329.33, 0.00, 0.00, 0.00, 0.00, 25188.13, 0.00, 0.00, 0.00, 0.00
104, 0.00, 4317.60, 0.00, 0.00, 0.00, 0.00, 25170.01, 0.00, 0.00, 0.00, 0.00
105, 0.00, 4298.75, 0.00, 0.00, 0.00, 0.00, 25169.25, 0.00, 0.00, 0.00, 0.00
106, 0.00, 4295.36, 0.00, 0.00, 0.00, 0.00, 25181.07, 0.00, 0.00, 0.00, 0.00
107, 0.00, 4298.98, 0.00, 0.00, 0.00, 0.00, 25172.69, 0.00, 0.00, 0.00, 0.00
108, 0.00, 4318.47, 0.00, 0.00, 0.00, 0.00, 25171.95, 0.00, 0.00, 0.00, 0.00
109, 0.00, 4329.78, 0.00, 0.00, 0.00, 0.00, 25164.60, 0.00, -0.71, 0.27, -0.59
110, 0.00, 4318.58, 0.00, 0.00, 0.00, 0.00, 25164.62, 0.00, 0.00, 0.00, 0.00
111, 0.00, 4309.42, 0.00, 0.00, 0.00, 0.00, 25178.10, 0.00, 0.00, 0.00, 0.00
112, 0.00, 4314.47, 0.00, 0.00, 0.00, 0.00, 25180.27, 0.00, 0.00, 0.00, 0.00
113, 0.00, 4317.80, 0.00, 0.00, 0.00, 0.00, 25174.90, 0.00, 0.00, 0.00, 0.00
114, 0.00, 4330.29, 0.00, 0.00, 0.00, 0.00, 25180.18, 0.00, 0.00, 0.00, 0.00
115, 0.00, 4334.92, 0.00, 0.00, 0.00, 0.00, 25165.74, 0.00, 0.00, 0.00, 0.00
116, 0.00, 4326.40, 0.00, 0.00, 0.00, 0.00, 25140.35, 0.00, 0.00, 0.00, 0.00
117, 0.00, 4332.24, 0.00, 0.00, 0.00, 0.00, 25164.00, 0.00, 0.00, 0.00, 0.00
118, 0.00, 4340.35, 0.00, 0.00, 0.00, 0.00, 25175.30, 0.00, -0.72, 0.26, -0.60
119, 0.00, 4330.96, 0.00, 0.00, 0.00, 0.00, 25172.94, 0.00, 0.00, 0.00, 0.00
120, 0.00, 4330.96, 0.00, 0.00, 0.00, 0.00, 25167.37, 0.00, 0.00, 0.00, 0.00
121, 0.00, 4333.89, 0.00, 0.00, 0.00, 0.00, 25154.90, 0.00, 0.00, 0.00, 0.00
122, 0.00, 4334.58, 0.00, 0.00, 0.00, 0.00, 25161.76, 0.00, 0.00, 0.00, 0.00
123, 0.00, 4351.10, 0.00, 0.00, 0.00, 0.00, 25157.65, 0.00, 0.00, 0.00, 0.00
124, 0.00, 4356.49, 0.00, 0.00, 0.00, 0.00, 25142.16, 0.00, 0.00, 0.00, 0.00
125, 0.00, 4352.18, 0.00, 0.00, 0.00, 0.00, 25176.85, 0.00, 0.00, 0.00, 0.00
126, 0.00, 4361.07, 0.00, 0.00, 0.00, 0.00, 25195.09, 0.00, 0.00, 0.00, 0.00
127, 0.00, 4353.25, 0.00, 0.00, 0.00, 0.00, 25203.22, 0.00, 0.00, 0.00, 0.00
128, 0.00, 4328.26, 0.00, 0.00, 0.00, 0.00, 25178.99, 0.00, -0.72, 0.26, -0.61
129, 0.00, 4332.57, 0.00, 0.00, 0.00, 0.00, 25166.99, 0.00, 0.00, 0.00, 0.00
130, 0.00, 4340.82, 0.00, 0.00, 0.00, 0.00, 25167.73, 0.00, 0.00, 0.00, 0.00
131, 0.00, 4347.62, 0.00, 0.00, 0.00, 0.00, 25158.63, 0.00, 0.00, 0.00, 0.00
132, 0.00, 4347.06, 0.00, 0.00, 0.00, 0.00, 25130.71, 0.00, 0.00, 0.00, 0.00
133, 0.00, 4349.05, 0.00, 0.00, 0.00, 0.00, 25168.38, 0.00, 0.00, 0.00, 0.00
134, 0.00, 4357.20, 0.00, 0.00, 0.00, 0.00, 25188.36, 0.00, 0.00, 0.00, 0.00
135, 0.00, 4361.52, 0.00, 0.00, 0.00, 0.00, 25172.76, 0.00, 0.00, 0.00, 0.00
136, 0.00, 4353.69, 0.00, 0.00, 0.00, 0.00, 25172.51, 0.00, 0.00, 0.00, 0.00
137, 0.00, 4350.83, 0.00, 0.00, 0.00, 0.00, 25191.38, 0.00, 0.00, 0.00, 0.00
138, 0.00, 4345.80, 0.00, 0.00, 0.00, 0.00, 25177.83, 0.00, -0.72, 0.26, -0.61
139, 0.00, 4341.54, 0.00, 0.00, 0.00, 0.00, 25168.11, 0.00, 0.00, 0.00, 0.00
140, 0.00, 4352.42, 0.00, 0.00, 0.00, 0.00, 25175.95, 0.00, 0.00, 0.00, 0.00
141, 0.00, 4346.32, 0.00, 0.00, 0.00, 0.00, 25172.29, 0.00, 0.00, 0.00, 0.00
142, 0.00, 4339.12, 0.00, 0.00, 0.00, 0.00, 25165.29, 0.00, 0.00, 0.00, 0.00
143, 0.00, 4336.04, 0.00, 0.00, 0.00, 0.00, 25166.99, 0.00, 0.00, 0.00, 0.00
144, 0.00, 4339.90, 0.00, 0.00, 0.00, 0.00, 25153.38, 0.00, 0.00, 0.00, 0.00
145, 0.00, 4342.88, 0.00, 0.00, 0.00, 0.00, 25164.00, 0.00, 0.00, 0.00, 0.00
146, 0.00, 4340.84, 0.00, 0.00, 0.00, 0.00, 25169.76, 0.00, 0.00, 0.00, 0.00
147, 0.00, 4350.68, 0.00, 0.00, 0.00, 0.00, 25167.53, 0.00, -0.71, 0.26, -0.61
148, 0.00, 4367.87, 0.00, 0.00, 0.00, 0.00, 25172.51, 0.00, 0.00, 0.00, 0.00
149, 0.00, 4374.93, 0.00, 0.00, 0.00, 0.00, 25162.61, 0.00, 0.00, 0.00, 0.00
150, 0.00, 4375.76, 0.00, 0.00, 0.00, 0.00, 25155.57, 0.00, 0.00, 0.00, 0.00
151, 0.00, 4357.76, 0.00, 0.00, 0.00, 0.00, 25170.37, 0.00, 0.00, 0.00, 0.00
152, 0.00, 4354.14, 0.00, 0.00, 0.00, 0.00, 25164.33, 0.00, 0.00, 0.00, 0.00
153, 0.00, 4374.44, 0.00, 0.00, 0.00, 0.00, 25159.82, 0.00, 0.00, 0.00, 0.00
154, 0.00, 4394.71, 0.00, 0.00, 0.00, 0.00, 25179.55, 0.00, 0.00, 0.00, 0.00
155, 0.00, 4417.80, 0.00, 0.00, 0.00, 0.00, 25190.13, 0.00, 0.00, 0.00, 0.00
156, 0.00, 4419.83, 0.00, 0.00, 0.00, 0.00, 25204.47, 0.00, 0.00, 0.00, 0.00
157, 0.00, 4408.14, 0.00, 0.00, 0.00, 0.00, 25198.22, 0.00, -0.71, 0.26, -0.62
158, 0.00, 4420.57, 0.00, 0.00, 0.00, 0.00, 25190.55, 0.00, 0.00, 0.00, 0.00
159, 0.00, 4431.81, 0.00, 0.00, 0.00, 0.00, 25193.68, 0.00, 0.00, 0.00, 0.00
160, 0.00, 4432.19, 0.00, 0.00, 0.00, 0.00, 25192.16, 0.00, 0.00, 0.00, 0.00
161, 0.00, 4431.59, 0.00, 0.00, 0.00, 0.00, 25175.10, 0.00, 0.00, 0.00, 0.00
162, 0.00, 4432.40, 0.00, 0.00, 0.00, 0.00, 25180.76, 0.00, 0.00, 0.00, 0.00
163, 0.00, 4436.98, 0.00, 0.00, 0.00, 0.00, 25179.78, 0.00, 0.00, 0.00, 0.00
164, 0.00, 4440.20, 0.00, 0.00, 0.00, 0.00, 25181.61, 0.00, 0.00, 0.00, 0.00
165, 0.00, 4443.84, 0.00, 0.00, 0.00, 0.00, 25207.71, 0.00, 0.00, 0.00, 0.00
166, 0.00, 4436.60, 0.00, 0.00, 0.00, 0.00, 25189.01, 0.00, 0.00, 0.00, 0.00
167, 0.00, 4437.13, 0.00, 0.00, 0.00, 0.00, 25172.13, 0.00, -0.72, 0.26, -0.62
168, 0.00, 4441.31, 0.00, 0.00, 0.00, 0.00, 25176.98, 0.00, 0.00, 0.00, 0.00
169, 0.00, 4438.39, 0.00, 0.00, 0.00, 0.00, 25197.77, 0.00, 0.00, 0.00, 0.00
170, 0.00, 4444.71, 0.00, 0.00, 0.00, 0.00, 25205.88, 0.00, 0.00, 0.00, 0.00
171, 0.00, 4453.83, 0.00, 0.00, 0.00, 0.00, 25218.20, 0.00, 0.00, 0.00, 0.00
172, 0.00, 4456.29, 0.00, 0.00, 0.00, 0.00, 25201.46, 0.00, 0.00, 0.00, 0.00
173, 0.00, 4441.43, 0.00, 0.00, 0.00, 0.00, 25190.48, 0.00, 0.00, 0.00, 0.00
174, 0.00, 4435.73, 0.00, 0.00, 0.00, 0.00, 25212.03, 0.00, 0.00, 0.00, 0.00
175, 0.00, 4435.86, 0.00, 0.00, 0.00, 0.00, 25196.90, 0.00, 0.00, 0.00, 0.00
176, 0.00, 4440.58, 0.00, 0.00, 0.00, 0.00, 25201.79, 0.00, -0.70, 0.24, -0.63
177, 0.00, 4447.28, 0.00, 0.00, 0.00, 0.00, 25212.61, 0.00, 0.00, 0.00, 0.00
178, 0.00, 4445.18, 0.00, 0.00, 0.00, 0.00, 25202.06, 0.00, 0.00, 0.00, 0.00
179, 0.00, 4449.41, 0.00, 0.00, 0.00, 0.00, 25197.12, 0.00, 0.00, 0.00, 0.00
180, 0.00, 4448.58, 0.00, 0.00, 0.00, 0.00, 25184.47, 0.00, 0.00, 0.00, 0.00
181, 0.00, 4451.31, 0.00, 0.00, 0.00, 0.00, 25185.92, 0.00, 0.00, 0.00, 0.00
182, 0.00, 4453.05, 0.00, 0.00, 0.00, 0.00, 25191.18, 0.00, 0.00, 0.00, 0.00
183, 0.00, 4458.48, 0.00, 0.00, 0.00, 0.00, 25185.50, 0.00, 0.00, 0.00, 0.00
184, 0.00, 4445.27, 0.00, 0.00, 0.00, 0.00, 25156.73, 0.00, 0.00, 0.00, 0.00
185, 0.00, 4440.62, 0.00, 0.00, 0.00, 0.00, 25160.84, 0.00, 0.00, 0.00, 0.00
186, 0.00, 4447.95, 0.00, 0.00, 0.00, 0.00, 25184.85, 0.00, -0.68, 0.24, -0.63
187, 0.00, 4448.13, 0.00, 0.00, 0.00, 0.00, 25194.10, 0.00, 0.00, 0.00, 0.00
188, 0.00, 4457.90, 0.00, 0.00, 0.00, 0.00, 25192.81, 0.00, 0.00, 0.00, 0.00
189, 0.00, 4462.39, 0.00, 0.00, 0.00, 0.00, 25190.30, 0.00, 0.00, 0.00, 0.00
190, 0.00, 4446.34, 0.00, 0.00, 0.00, 0.00, 25159.19, 0.00, 0.00, 0.00, 0.00
191, 0.00, 4437.34, 0.00, 0.00, 0.00, 0.00, 25149.40, 0.00, 0.00, 0.00, 0.00
192, 0.00, 4450.39, 0.00, 0.00, 0.00, 0.00, 25190.13, 0.00, 0.00, 0.00, 0.00
193, 0.00, 4451.24, 0.00, 0.00, 0.00, 0.00, 25199.11, 0.00, 0.00, 0.00, 0.00
194, 0.00, 4449.25, 0.00, 0.00, 0.00, 0.00, 25182.93, 0.00, 0.00, 0.00, 0.00
195, 0.00, 4447.24, 0.00, 0.00, 0.00, 0.00, 25165.96, 0.00, 0.00, 0.00, 0.00
196, 0.00, 4452.29, 0.00, 0.00, 0.00, 0.00, 25147.52, 0.00, -0.70, 0.24, -0.64
197, 0.00, 4453.54, 0.00, 0.00, 0.00, 0.00, 25145.11, 0.00, 0.00, 0.00, 0.00
198, 0.00, 4433.89, 0.00, 0.00, 0.00, 0.00, 25163.64, 0.00, 0.00, 0.00, 0.00
199, 0.00, 4436.37, 0.00, 0.00, 0.00, 0.00, 25206.75, 0.00, 0.00, 0.00, 0.00
200, 0.00, 4446.45, 0.00, 0.00, 0.00, 0.00, 25180.98, 0.00, 0.00, 0.00, 0.00
201, 0.00, 4450.99, 0.00, 0.00, 0.00, 0.00, 25150.92, 0.00, 0.00, 0.00, 0.00
202, 0.00, 4447.10, 0.00, 0.00, 0.00, 0.00, 25185.86, 0.00, 0.00, 0.00, 0.00
203, 0.00, 4439.03, 0.00, 0.00, 0.00, 0.00, 25188.38, 0.00, 0.00, 0.00, 0.00
204, 0.00, 4441.52, 0.00, 0.00, 0.00, 0.00, 25154.36, 0.00, 0.00, 0.00, 0.00
205, 0.00, 4450.30, 0.00, 0.00, 0.00, 0.00, 25180.85, 0.00, -0.71, 0.23, -0.64
206, 0.00, 4446.05, 0.00, 0.00, 0.00, 0.00, 25215.87, 0.00, 0.00, 0.00, 0.00
207, 0.00, 4439.37, 0.00, 0.00, 0.00, 0.00, 25190.06, 0.00, 0.00, 0.00, 0.00
208, 0.00, 4440.60, 0.00, 0.00, 0.00, 0.00, 25189.43, 0.00, 0.00, 0.00, 0.00
209, 0.00, 4446.90, 0.00, 0.00, 0.00, 0.00, 25206.31, 0.00, 0.00, 0.00, 0.00
210, 0.00, 4448.20, 0.00, 0.00, 0.00, 0.00, 25216.52, 0.00, 0.00, 0.00, 0.00
211, 0.00, 4444.24, 0.00, 0.00, 0.00, 0.00, 25206.91, 0.00, 0.00, 0.00, 0.00
212, 0.00, 4449.32, 0.00, 0.00, 0.00, 0.00, 25201.72, 0.00, 0.00, 0.00, 0.00
213, 0.00, 4453.23, 0.00, 0.00, 0.00, 0.00, 25192.79, 0.00, 0.00, 0.00, 0.00
214, 0.00, 4455.28, 0.00, 0.00, 0.00, 0.00, 25187.02, 0.00, 0.00, 0.00, 0.00
215, 0.00, 4448.04, 0.00, 0.00, 0.00, 0.00, 25176.40, 0.00, -0.70, 0.22, -0.65
216, 0.00, 4456.96, 0.00, 0.00, 0.00, 0.00, 25165.25, 0.00, 0.00, 0.00, 0.00
217, 0.00, 4449.25, 0.00, 0.00, 0.00, 0.00, 25146.40, 0.00, 0.00, 0.00, 0.00
218, 0.00, 4435.14, 0.00, 0.00, 0.00, 0.00, 25140.04, 0.00, 0.00, 0.00, 0.00
219, 0.00, 4441.90, 0.00, 0.00, 0.00, 0.00, 25181.88, 0.00, 0.00, 0.00, 0.00
220, 0.00, 4443.91, 0.00, 0.00, 0.00, 0.00, 25185.68, 0.00, 0.00, 0.00, 0.00
221, 0.00, 4445.72, 0.00, 0.00, 0.00, 0.00, 25196.76, 0.00, 0.00, 0.00, 0.00
222, 0.00, 4446.83, 0.00, 0.00, 0.00, 0.00, 25187.42, 0.00, 0.00, 0.00, 0.00
223, 0.00, 4447.95, 0.00, 0.00, 0.00, 0.00, 25189.14, 0.00, 0.00, 0.00, 0.00
224, 0.00, 4444.29, 0.00, 0.00, 0.00, 0.00, 25180.27, 0.00, 0.00, 0.00, 0.00
225, 0.00, 4448.33, 0.00, 0.00, 0.00, 0.00, 25179.48, 0.00, -0.69, 0.22, -0.65
226, 0.00, 4455.91, 0.00, 0.00, 0.00, 0.00, 25192.29, 0.00, 0.00, 0.00, 0.00
227, 0.00, 4440.93, 0.00, 0.00, 0.00, 0.00, 25184.58, 0.00, 0.00, 0.00, 0.00
228, 0.00, 4435.12, 0.00, 0.00, 0.00, 0.00, 25172.53, 0.00, 0.00, 0.00, 0.00
229, 0.00, 4444.71, 0.00, 0.00, 0.00, 0.00, 25168.69, 0.00, 0.00, 0.00, 0.00
230, 0.00, 4434.45, 0.00, 0.00, 0.00, 0.00, 25162.72, 0.00, 0.00, 0.00, 0.00
231, 0.00, 4427.28, 0.00, 0.00, 0.00, 0.00, 25176.63, 0.00, 0.00, 0.00, 0.00
232, 0.00, 4430.50, 0.00, 0.00, 0.00, 0.00, 25180.02, 0.00, 0.00, 0.00, 0.00
233, 0.00, 4437.58, 0.00, 0.00, 0.00, 0.00, 25170.21, 0.00, 0.00, 0.00, 0.00
234, 0.00, 4443.33, 0.00, 0.00, 0.00, 0.00, 25171.73, 0.00, -0.69, 0.23, -0.65
235, 0.00, 4450.03, 0.00, 0.00, 0.00, 0.00, 25160.49, 0.00, 0.00, 0.00, 0.00
236, 0.00, 4438.97, 0.00, 0.00, 0.00, 0.00, 25184.83, 0.00, 0.00, 0.00, 0.00
237, 0.00, 4433.47, 0.00, 0.00, 0.00, 0.00, 25205.41, 0.00, 0.00, 0.00, 0.00
238, 0.00, 4431.17, 0.00, 0.00, 0.00, 0.00, 25186.97, 0.00, 0.00, 0.00, 0.00
239, 0.00, 4411.00, 0.00, 0.00, 0.00, 0.00, 25175.64, 0.00, 0.00, 0.00, 0.00
240, 0.00, 4403.20, 0.00, 0.00, 0.00, 0.00, 25190.62, 0.00, 0.00, 0.00, 0.00
241, 0.00, 4408.39, 0.00, 0.00, 0.00, 0.00, 25188.02, 0.00, 0.00, 0.00, 0.00
242, 0.00, 4410.42, 0.00, 0.00, 0.00, 0.00, 25183.51, 0.00, 0.00, 0.00, 0.00
243, 0.00, 4418.14, 0.00, 0.00, 0.00, 0.00, 25187.91, 0.00, 0.00, 0.00, 0.00
244, 0.00, 4421.60, 0.00, 0.00, 0.00, 0.00, 25191.67, 0.00, -0.70, 0.22, -0.68
245, 0.00, 4422.90, 0.00, 0.00, 0.00, 0.00, 25181.41, 0.00, 0.00, 0.00, 0.00
246, 0.00, 4429.18, 0.00, 0.00, 0.00, 0.00, 25167.30, 0.00, 0.00, 0.00, 0.00
247, 0.00, 4427.88, 0.00, 0.00, 0.00, 0.00, 25185.70, 0.00, 0.00, 0.00, 0.00
248, 0.00, 4425.18, 0.00, 0.00, 0.00, 0.00, 25165.92, 0.00, 0.00, 0.00, 0.00
249, 0.00, 4434.43, 0.00, 0.00, 0.00, 0.00, 25156.24, 0.00, 0.00, 0.00, 0.00
250, 0.00, 4443.21, 0.00, 0.00, 0.00, 0.00, 25183.13, 0.00, 0.00, 0.00, 0.00
251, 0.00, 4419.01, 0.00, 0.00, 0.00, 0.00, 25166.74, 0.00, 0.00, 0.00, 0.00
252, 0.00, 4402.69, 0.00, 0.00, 0.00, 0.00, 25165.43, 0.00, 0.00, 0.00, 0.00
253, 0.00, 4409.84, 0.00, 0.00, 0.00, 0.00, 25163.12, 0.00, 0.00, 0.00, 0.00
254, 0.00, 4418.05, 0.00, 0.00, 0.00, 0.00, 25177.63, 0.00, -0.68, 0.25, -0.65
255, 0.00, 4420.53, 0.00, 0.00, 0.00, 0.00, 25188.40, 0.00, 0.00, 0.00, 0.00
0, 0.00, 4420.53, 0.00, 0.00, 0.00, 0.00, 25178.14, 0.00, 0.00, 0.00, 0.00
1, 0.00, 4420.15, 0.00, 0.00, 0.00, 0.00, 25162.07, 0.00, 0.00, 0.00, 0.00
2, 0.00, 4415.23, 0.00, 0.00, 0.00, 0.00, 25153.49, 0.00, 0.00, 0.00, 0.00
3, 0.00, 4412.77, 0.00, 0.00, 0.00, 0.00, 25157.98, 0.00, 0.00, 0.00, 0.00
4, 0.00, 4415.90, 0.00, 0.00, 0.00, 0.00, 25172.18, 0.00, 0.00, 0.00, 0.00
5, 0.00, 4409.28, 0.00, 0.00, 0.00, 0.00, 25165.20, 0.00, 0.00, 0.00, 0.00
6, 0.00, 4414.58, 0.00, 0.00, 0.00, 0.00, 25136.08, 0.00, 0.00, 0.00, 0.00
7, 0.00, 4418.69, 0.00, 0.00, 0.00, 0.00, 25153.54, 0.00, -0.69, 0.23, -0.63
8, 0.00, 4417.11, 0.00, 0.00, 0.00, 0.00, 25178.68, 0.00, 0.00, 0.00, 0.00
9, 0.00, 4407.74, 0.00, 0.00, 0.00, 0.00, 25179.33, 0.00, 0.00, 0.00, 0.00
10, 0.00, 4417.96, 0.00, 0.00, 0.00, 0.00, 25168.42, 0.00, 0.00, 0.00, 0.00
11, 0.00, 4420.37, 0.00, 0.00, 0.00, 0.00, 25188.04, 0.00, 0.00, 0.00, 0.00
12, 0.00, 4419.19, 0.00, 0.00, 0.00, 0.00, 25186.84, 0.00, 0.00, 0.00, 0.00
13, 0.00, 4423.05, 0.00, 0.00, 0.00, 0.00, 25170.95, 0.00, 0.00, 0.00, 0.00
14, 0.00, 4405.44, 0.00, 0.00, 0.00, 0.00, 25161.11, 0.00, 0.00, 0.00, 0.00
15, 0.00, 4407.21, 0.00, 0.00, 0.00, 0.00, 25142.05, 0.00, 0.00, 0.00, 0.00
16, 0.00, 4414.34, 0.00, 0.00, 0.00, 0.00, 25154.07, 0.00, 0.00, 0.00, 0.00
17, 0.00, 4408.81, 0.00, 0.00, 0.00, 0.00, 25165.89, 0.00, -0.70, 0.24, -0.63
18, 0.00, 4400.77, 0.00, 0.00, 0.00, 0.00, 25135.92, 0.00, 0.00, 0.00, 0.00
19, 0.00, 4406.62, 0.00, 0.00, 0.00, 0.00, 25158.21, 0.00, 0.00, 0.00, 0.00
20, 0.00, 4414.76, 0.00, 0.00, 0.00, 0.00, 25170.95, 0.00, 0.00, 0.00, 0.00
21, 0.00, 4412.82, 0.00, 0.00, 0.00, 0.00, 25154.85, 0.00, 0.00, 0.00, 0.00
22, 0.00, 4408.39, 0.00, 0.00, 0.00, 0.00, 25150.88, 0.00, 0.00, 0.00, 0.00
23, 0.00, 4403.72, 0.00, 0.00, 0.00, 0.00, 25146.14, 0.00, 0.00, 0.00, 0.00
24, 0.00, 4411.43, 0.00, 0.00, 0.00, 0.00, 25151.43, 0.00, 0.00, 0.00, 0.00
25, 0.00, 4418.25, 0.00, 0.00, 0.00, 0.00, 25185.23, 0.00, 0.00, 0.00, 0.00
26, 0.00, 4406.89, 0.00, 0.00, 0.00, 0.00, 25183.64, 0.00, 0.00, 0.00, 0.00
27, 0.00, 4401.57, 0.00, 0.00, 0.00, 0.00, 25169.74, 0.00, -0.70, 0.25, -0.64
28, 0.00, 4415.56, 0.00, 0.00, 0.00, 0.00, 25181.16, 0.00, 0.00, 0.00, 0.00
29, 0.00, 4418.67, 0.00, 0.00, 0.00, 0.00, 25179.87, 0.00, 0.00, 0.00, 0.00
30, 0.00, 4416.10, 0.00, 0.00, 0.00, 0.00, 25168.44, 0.00, 0.00, 0.00, 0.00
31, 0.00, 4408.55, 0.00, 0.00, 0.00, 0.00, 25158.63, 0.00, 0.00, 0.00, 0.00
32, 0.00, 4398.89, 0.00, 0.00, 0.00, 0.00, 25151.81, 0.00, 0.00, 0.00, 0.00
33, 0.00, 4411.52, 0.00, 0.00, 0.00, 0.00, 25148.97, 0.00, 0.00, 0.00, 0.00
34, 0.00, 4398.62, 0.00, 0.00, 0.00, 0.00, 25153.22, 0.00, 0.00, 0.00, 0.00
35, 0.00, 4373.16, 0.00, 0.00, 0.00, 0.00, 25158.32, 0.00, 0.00, 0.00, 0.00
36, 0.00, 4369.74, 0.00, 0.00, 0.00, 0.00, 25162.27, 0.00, -0.69, 0.25, -0.65
37, 0.00, 4378.15, 0.00, 0.00, 0.00, 0.00, 25155.72, 0.00, 0.00, 0.00, 0.00
38, 0.00, 4376.99, 0.00, 0.00, 0.00, 0.00, 25153.20, 0.00, 0.00, 0.00, 0.00
39, 0.00, 4374.42, 0.00, 0.00, 0.00, 0.00, 25148.46, 0.00, 0.00, 0.00, 0.00
40, 0.00, 4381.66, 0.00, 0.00, 0.00, 0.00, 25150.61, 0.00, 0.00, 0.00, 0.00
41, 0.00, 4375.62, 0.00, 0.00, 0.00, 0.00, 25170.84, 0.00, 0.00, 0.00, 0.00
42, 0.00, 4374.97, 0.00, 0.00, 0.00, 0.00, 25170.92, 0.00, 0.00, 0.00, 0.00
43, 0.00, 4370.75, 0.00, 0.00, 0.00, 0.00, 25150.79, 0.00, 0.00, 0.00, 0.00
44, 0.00, 4365.21, 0.00, 0.00, 0.00, 0.00, 25148.93, 0.00, 0.00, 0.00, 0.00
45, 0.00, 4373.63, 0.00, 0.00, 0.00, 0.00, 25155.17, 0.00, 0.00, 0.00, 0.00
46, 0.00, 4378.24, 0.00, 0.00, 0.00, 0.00, 25154.70, 0.00, -0.68, 0.24, -0.64
47, 0.00, 4381.37, 0.00, 0.00, 0.00, 0.00, 25156.89, 0.00, 0.00, 0.00, 0.00
48, 0.00, 4385.43, 0.00, 0.00, 0.00, 0.00, 25152.82, 0.00, 0.00, 0.00, 0.00
49, 0.00, 4385.93, 0.00, 0.00, 0.00, 0.00, 25136.41, 0.00, 0.00, 0.00, 0.00
50, 0.00, 4382.71, 0.00, 0.00, 0.00, 0.00, 25134.74, 0.00, 0.00, 0.00, 0.00
51, 0.00, 4369.12, 0.00, 0.00, 0.00, 0.00, 25149.20, 0.00, 0.00, 0.00, 0.00
52, 0.00, 4372.09, 0.00, 0.00, 0.00, 0.00, 25162.23, 0.00, 0.00, 0.00, 0.00
53, 0.00, 4371.84, 0.00, 0.00, 0.00, 0.00, 25162.63, 0.00, 0.00, 0.00, 0.00
54, 0.00, 4376.90, 0.00, 0.00, 0.00, 0.00, 25143.34, 0.00, 0.00, 0.00, 0.00
55, 0.00, 4384.23, 0.00, 0.00, 0.00, 0.00, 25135.23, 0.00, -0.67, 0.24, -0.64
56, 0.00, 4374.26, 0.00, 0.00, 0.00, 0.00, 25153.80, 0.00, 0.00, 0.00, 0.00
57, 0.00, 4376.05, 0.00, 0.00, 0.00, 0.00, 25159.99, 0.00, 0.00, 0.00, 0.00
58, 0.00, 4381.86, 0.00, 0.00, 0.00, 0.00, 25142.76, 0.00, 0.00, 0.00, 0.00
59, 0.00, 4379.71, 0.00, 0.00, 0.00, 0.00, 25136.19, 0.00, 0.00, 0.00, 0.00
60, 0.00, 4370.66, 0.00, 0.00, 0.00, 0.00, 25146.36, 0.00, 0.00, 0.00, 0.00
61, 0.00, 4367.51, 0.00, 0.00, 0.00, 0.00, 25140.53, 0.00, 0.00, 0.00, 0.00
62, 0.00, 4370.86, 0.00, 0.00, 0.00, 0.00, 25127.61, 0.00, 0.00, 0.00, 0.00
63, 0.00, 4374.64, 0.00, 0.00, 0.00, 0.00, 25125.44, 0.00, 0.00, 0.00, 0.00
64, 0.00, 4381.48, 0.00, 0.00, 0.00, 0.00, 25156.35, 0.00, 0.00, 0.00, 0.00
65, 0.00, 4395.63, 0.00, 0.00, 0.00, 0.00, 25145.89, 0.00, -0.69, 0.25, -0.65
66, 0.00, 4393.53, 0.00, 0.00, 0.00, 0.00, 25122.11, 0.00, 0.00, 0.00, 0.00
67, 0.00, 4378.97, 0.00, 0.00, 0.00, 0.00, 25150.52, 0.00, 0.00, 0.00, 0.00
68, 0.00, 4367.15, 0.00, 0.00, 0.00, 0.00, 25150.27, 0.00, 0.00, 0.00, 0.00
69, 0.00, 4372.58, 0.00, 0.00, 0.00, 0.00, 25138.98, 0.00, 0.00, 0.00, 0.00
70, 0.00, 4377.05, 0.00, 0.00, 0.00, 0.00, 25136.01, 0.00, 0.00, 0.00, 0.00
71, 0.00, 4381.41, 0.00, 0.00, 0.00, 0.00, 25165.09, 0.00, 0.00, 0.00, 0.00
72, 0.00, 4369.32, 0.00, 0.00, 0.00, 0.00, 25163.55, 0.00, 0.00, 0.00, 0.00
73, 0.00, 4371.24, 0.00, 0.00, 0.00, 0.00, 25149.00, 0.00, 0.00, 0.00, 0.00
74, 0.00, 4370.97, 0.00, 0.00, 0.00, 0.00, 25151.88, 0.00, 0.00, 0.00, 0.00
75, 0.00, 4369.27, 0.00, 0.00, 0.00, 0.00, 25146.45, 0.00, -0.68, 0.24, -0.65
76, 0.00, 4373.03, 0.00, 0.00, 0.00, 0.00, 25141.76, 0.00, 0.00, 0.00, 0.00
77, 0.00, 4377.19, 0.00, 0.00, 0.00, 0.00, 25120.32, 0.00, 0.00, 0.00, 0.00
78, 0.00, 4377.19, 0.00, 0.00, 0.00, 0.00, 25141.76, 0.00, 0.00, 0.00, 0.00
79, 0.00, 4372.16, 0.00, 0.00, 0.00, 0.00, 25169.40, 0.00, 0.00, 0.00, 0.00
80, 0.00, 4375.24, 0.00, 0.00, 0.00, 0.00, 25166.23, 0.00, 0.00, 0.00, 0.00
81, 0.00, 4375.76, 0.00, 0.00, 0.00, 0.00, 25145.04, 0.00, 0.00, 0.00, 0.00
82, 0.00, 4383.15, 0.00, 0.00, 0.00, 0.00, 25127.16, 0.00, 0.00, 0.00, 0.00
83, 0.00, 4380.03, 0.00, 0.00, 0.00, 0.00, 25155.44, 0.00, 0.00, 0.00, 0.00
84, 0.00, 4370.50, 0.00, 0.00, 0.00, 0.00, 25155.57, 0.00, -0.67, 0.25, -0.64
85, 0.00, 4376.34, 0.00, 0.00, 0.00, 0.00, 25142.72, 0.00, 0.00, 0.00, 0.00
86, 0.00, 4373.34, 0.00, 0.00, 0.00, 0.00, 25147.68, 0.00, 0.00, 0.00, 0.00
87, 0.00, 4378.84, 0.00, 0.00, 0.00, 0.00, 25145.98, 0.00, 0.00, 0.00, 0.00
88, 0.00, 4383.11, 0.00, 0.00, 0.00, 0.00, 25155.32, 0.00, 0.00, 0.00, 0.00
89, 0.00, 4362.70, 0.00, 0.00, 0.00, 0.00, 25129.13, 0.00, 0.00, 0.00, 0.00
90, 0.00, 4360.85, 0.00, 0.00, 0.00, 0.00, 25104.83, 0.00, 0.00, 0.00, 0.00
91, 0.00, 4373.77, 0.00, 0.00, 0.00, 0.00, 25129.19, 0.00, 0.00, 0.00, 0.00
92, 0.00, 4375.78, 0.00, 0.00, 0.00, 0.00, 25151.30, 0.00, 0.00, 0.00, 0.00
93, 0.00, 4374.10, 0.00, 0.00, 0.00, 0.00, 25161.74, 0.00, 0.00, 0.00, 0.00
94, 0.00, 4381.52, 0.00, 0.00, 0.00, 0.00, 25158.68, 0.00, -0.69, 0.26, -0.65
95, 0.00, 4373.36, 0.00, 0.00, 0.00, 0.00, 25158.54, 0.00, 0.00, 0.00, 0.00
96, 0.00, 4373.90, 0.00, 0.00, 0.00, 0.00, 25165.11, 0.00, 0.00, 0.00, 0.00
97, 0.00, 4375.53, 0.00, 0.00, 0.00, 0.00, 25161.54, 0.00, 0.00, 0.00, 0.00
98, 0.00, 4369.97, 0.00, 0.00, 0.00, 0.00, 25153.38, 0.00, 0.00, 0.00, 0.00
99, 0.00, 4371.73, 0.00, 0.00, 0.00, 0.00, 25155.23, 0.00, 0.00, 0.00, 0.00
100, 0.00, 4376.72, 0.00, 0.00, 0.00, 0.00, 25156.73, 0.00, 0.00, 0.00, 0.00
101, 0.00, 4379.82, 0.00, 0.00, 0.00, 0.00, 25149.31, 0.00, 0.00, 0.00, 0.00
102, 0.00, 4378.91, 0.00, 0.00, 0.00, 0.00, 25128.19, 0.00, 0.00, 0.00, 0.00
103, 0.00, 4362.55, 0.00, 0.00, 0.00, 0.00, 25161.96, 0.00, 0.00, 0.00, 0.00
104, 0.00, 4356.65, 0.00, 0.00, 0.00, 0.00, 25176.91, 0.00, -0.69, 0.26, -0.65
105, 0.00, 4368.40, 0.00, 0.00, 0.00, 0.00, 25163.46, 0.00, 0.00, 0.00, 0.00
106, 0.00, 4371.42, 0.00, 0.00, 0.00, 0.00, 25152.80, 0.00, 0.00, 0.00, 0.00
107, 0.00, 4371.87, 0.00, 0.00, 0.00, 0.00, 25159.19, 0.00, 0.00, 0.00, 0.00
108, 0.00, 4377.07, 0.00, 0.00, 0.00, 0.00, 25181.72, 0.00, 0.00, 0.00, 0.00
109, 0.00, 4380.87, 0.00, 0.00, 0.00, 0.00, 25167.82, 0.00, 0.00, 0.00, 0.00
110, 0.00, 4365.72, 0.00, 0.00, 0.00, 0.00, 25159.10, 0.00, 0.00, 0.00, 0.00
111, 0.00, 4354.14, 0.00, 0.00, 0.00, 0.00, 25151.84, 0.00, 0.00, 0.00, 0.00
112, 0.00, 4361.09, 0.00, 0.00, 0.00, 0.00, 25165.34, 0.00, 0.00, 0.00, 0.00
113, 0.00, 4373.52, 0.00, 0.00, 0.00, 0.00, 25179.24, 0.00, -0.69, 0.26, -0.64
114, 0.00, 4372.31, 0.00, 0.00, 0.00, 0.00, 25170.88, 0.00, 0.00, 0.00, 0.00
115, 0.00, 4374.19, 0.00, 0.00, 0.00, 0.00, 25155.59, 0.00, 0.00, 0.00, 0.00
116, 0.00, 4364.54, 0.00, 0.00, 0.00, 0.00, 25145.46, 0.00, 0.00, 0.00, 0.00
117, 0.00, 4374.68, 0.00, 0.00, 0.00, 0.00, 25162.32, 0.00, 0.00, 0.00, 0.00
118, 0.00, 4371.51, 0.00, 0.00, 0.00, 0.00, 25174.12, 0.00, 0.00, 0.00, 0.00
119, 0.00, 4366.68, 0.00, 0.00, 0.00, 0.00, 25170.23, 0.00, 0.00, 0.00, 0.00
120, 0.00, 4382.53, 0.00, 0.00, 0.00, 0.00, 25166.01, 0.00, 0.00, 0.00, 0.00
121, 0.00, 4377.12, 0.00, 0.00, 0.00, 0.00, 25164.20, 0.00, 0.00, 0.00, 0.00
122, 0.00, 4367.89, 0.00, 0.00, 0.00, 0.00, 25169.43, 0.00, 0.00, 0.00, 0.00
123, 0.00, 4368.89, 0.00, 0.00, 0.00, 0.00, 25169.54, 0.00, -0.68, 0.26, -0.63
124, 0.00, 4376.52, 0.00, 0.00, 0.00, 0.00, 25161.51, 0.00, 0.00, 0.00, 0.00
125, 0.00, 4373.36, 0.00, 0.00, 0.00, 0.00, 25158.32, 0.00, 0.00, 0.00, 0.00
126, 0.00, 4368.42, 0.00, 0.00, 0.00, 0.00, 25158.52, 0.00, 0.00, 0.00, 0.00
127, 0.00, 4376.16, 0.00, 0.00, 0.00, 0.00, 25177.90, 0.00, 0.00, 0.00, 0.00
128, 0.00, 4397.50, 0.00, 0.00, 0.00, 0.00, 25161.20, 0.00, 0.00, 0.00, 0.00
129, 0.00, 4405.01, 0.00, 0.00, 0.00, 0.00, 25158.47, 0.00, 0.00, 0.00, 0.00
130, 0.00, 4394.67, 0.00, 0.00, 0.00, 0.00, 25151.46, 0.00, 0.00, 0.00, 0.00
131, 0.00, 4381.05, 0.00, 0.00, 0.00, 0.00, 25141.31, 0.00, 0.00, 0.00, 0.00
132, 0.00, 4380.38, 0.00, 0.00, 0.00, 0.00, 25138.20, 0.00, 0.00, 0.00, 0.00
133, 0.00, 4397.17, 0.00, 0.00, 0.00, 0.00, 25166.95, 0.00, -0.69, 0.27, -0.63
134, 0.00, 4418.56, 0.00, 0.00, 0.00, 0.00, 25186.39, 0.00, 0.00, 0.00, 0.00
135, 0.00, 4415.48, 0.00, 0.00, 0.00, 0.00, 25173.49, 0.00, 0.00, 0.00, 0.00
136, 0.00, 4420.24, 0.00, 0.00, 0.00, 0.00, 25170.14, 0.00, 0.00, 0.00, 0.00
137, 0.00, 4431.81, 0.00, 0.00, 0.00, 0.00, 25190.37, 0.00, 0.00, 0.00, 0.00
138, 0.00, 4435.70, 0.00, 0.00, 0.00, 0.00, 25185.59, 0.00, 0.00, 0.00, 0.00
139, 0.00, 4428.75, 0.00, 0.00, 0.00, 0.00, 25174.93, 0.00, 0.00, 0.00, 0.00
140, 0.00, 4422.72, 0.00, 0.00, 0.00, 0.00, 25155.01, 0.00, 0.00, 0.00, 0.00
141, 0.00, 4419.12, 0.00, 0.00, 0.00, 0.00, 25165.74, 0.00, 0.00, 0.00, 0.00
142, 0.00, 4413.35, 0.00, 0.00, 0.00, 0.00, 25168.13, 0.00, -0.70, 0.27, -0.63
143, 0.00, 4414.49, 0.00, 0.00, 0.00, 0.00, 25163.48, 0.00, 0.00, 0.00, 0.00
144, 0.00, 4417.13, 0.00, 0.00, 0.00, 0.00, 25165.47, 0.00, 0.00, 0.00, 0.00
145, 0.00, 4420.95, 0.00, 0.00, 0.00, 0.00, 25172.62, 0.00, 0.00, 0.00, 0.00
146, 0.00, 4419.45, 0.00, 0.00, 0.00, 0.00, 25175.91, 0.00, 0.00, 0.00, 0.00
147, 0.00, 4424.51, 0.00, 0.00, 0.00, 0.00, 25169.23, 0.00, 0.00, 0.00, 0.00
148, 0.00, 4432.26, 0.00, 0.00, 0.00, 0.00, 25183.17, 0.00, 0.00, 0.00, 0.00
149, 0.00, 4436.33, 0.00, 0.00, 0.00, 0.00, 25171.26, 0.00, 0.00, 0.00, 0.00
150, 0.00, 4416.68, 0.00, 0.00, 0.00, 0.00, 25156.53, 0.00, 0.00, 0.00, 0.00
151, 0.00, 4409.37, 0.00, 0.00, 0.00, 0.00, 25171.37, 0.00, 0.00, 0.00, 0.00
152, 0.00, 4421.04, 0.00, 0.00, 0.00, 0.00, 25167.06, 0.00, -0.69, 0.27, -0.63
153, 0.00, 4429.71, 0.00, 0.00, 0.00, 0.00, 25160.33, 0.00, 0.00, 0.00, 0.00
154, 0.00, 4420.37, 0.00, 0.00, 0.00, 0.00, 25176.76, 0.00, 0.00, 0.00, 0.00
155, 0.00, 4422.94, 0.00, 0.00, 0.00, 0.00, 25183.55, 0.00, 0.00, 0.00, 0.00
156, 0.00, 4426.63, 0.00, 0.00, 0.00, 0.00, 25152.93, 0.00, 0.00, 0.00, 0.00
157, 0.00, 4423.61, 0.00, 0.00, 0.00, 0.00, 25159.19, 0.00, 0.00, 0.00, 0.00
158, 0.00, 4436.80, 0.00, 0.00, 0.00, 0.00, 25150.96, 0.00, 0.00, 0.00, 0.00
159, 0.00, 4433.42, 0.00, 0.00, 0.00, 0.00, 25153.56, 0.00, 0.00, 0.00, 0.00
160, 0.00, 4423.14, 0.00, 0.00, 0.00, 0.00, 25182.77, 0.00, 0.00, 0.00, 0.00
161, 0.00, 4425.29, 0.00, 0.00, 0.00, 0.00, 25213.19, 0.00, 0.00, 0.00, 0.00
162, 0.00, 4436.06, 0.00, 0.00, 0.00, 0.00, 25221.46, 0.00, -0.69, 0.27, -0.63
163, 0.00, 4420.59, 0.00, 0.00, 0.00, 0.00, 25204.47, 0.00, 0.00, 0.00, 0.00
164, 0.00, 4419.12, 0.00, 0.00, 0.00, 0.00, 25187.78, 0.00, 0.00, 0.00, 0.00
165, 0.00, 4425.11, 0.00, 0.00, 0.00, 0.00, 25190.06, 0.00, 0.00, 0.00, 0.00
166, 0.00, 4428.55, 0.00, 0.00, 0.00, 0.00, 25194.80, 0.00, 0.00, 0.00, 0.00
167, 0.00, 4434.56, 0.00, 0.00, 0.00, 0.00, 25195.33, 0.00, 0.00, 0.00, 0.00
168, 0.00, 4438.90, 0.00, 0.00, 0.00, 0.00, 25190.57, 0.00, 0.00, 0.00, 0.00
169, 0.00, 4433.22, 0.00, 0.00, 0.00, 0.00, 25172.78, 0.00, 0.00, 0.00, 0.00
170, 0.00, 4432.53, 0.00, 0.00, 0.00, 0.00, 25181.34, 0.00, 0.00, 0.00, 0.00
171, 0.00, 4439.48, 0.00, 0.00, 0.00, 0.00, 25193.48, 0.00, -0.70, 0.26, -0.63
172, 0.00, 4439.41, 0.00, 0.00, 0.00, 0.00, 25197.79, 0.00, 0.00, 0.00, 0.00
173, 0.00, 4416.66, 0.00, 0.00, 0.00, 0.00, 25179.08, 0.00, 0.00, 0.00, 0.00
174, 0.00, 4431.21, 0.00, 0.00, 0.00, 0.00, 25172.40, 0.00, 0.00, 0.00, 0.00
175, 0.00, 4430.09, 0.00, 0.00, 0.00, 0.00, 25185.59, 0.00, 0.00, 0.00, 0.00
176, 0.00, 4427.68, 0.00, 0.00, 0.00, 0.00, 25198.37, 0.00, 0.00, 0.00, 0.00
177, 0.00, 4435.32, 0.00, 0.00, 0.00, 0.00, 25196.07, 0.00, 0.00, 0.00, 0.00
178, 0.00, 4428.75, 0.00, 0.00, 0.00, 0.00, 25181.61, 0.00, 0.00, 0.00, 0.00
179, 0.00, 4430.47, 0.00, 0.00, 0.00, 0.00, 25174.93, 0.00, 0.00, 0.00, 0.00
180, 0.00, 4436.13, 0.00, 0.00, 0.00, 0.00, 25180.33, 0.00, 0.00, 0.00, 0.00
181, 0.00, 4435.79, 0.00, 0.00, 0.00, 0.00, 25180.00, 0.00, -0.70, 0.27, -0.62
182, 0.00, 4446.70, 0.00, 0.00, 0.00, 0.00, 25175.73, 0.00, 0.00, 0.00, 0.00
183, 0.00, 4457.00, 0.00, 0.00, 0.00, 0.00, 25185.50, 0.00, 0.00, 0.00, 0.00
184, 0.00, 4455.06, 0.00, 0.00, 0.00, 0.00, 25183.42, 0.00, 0.00, 0.00, 0.00
185, 0.00, 4438.81, 0.00, 0.00, 0.00, 0.00, 25187.38, 0.00, 0.00, 0.00, 0.00
186, 0.00, 4435.17, 0.00, 0.00, 0.00, 0.00, 25213.01, 0.00, 0.00, 0.00, 0.00
187, 0.00, 4431.66, 0.00, 0.00, 0.00, 0.00, 25208.43, 0.00, 0.00, 0.00, 0.00
188, 0.00, 4412.30, 0.00, 0.00, 0.00, 0.00, 25199.94, 0.00, 0.00, 0.00, 0.00
189, 0.00, 4417.62, 0.00, 0.00, 0.00, 0.00, 25201.95, 0.00, 0.00, 0.00, 0.00
190, 0.00, 4419.97, 0.00, 0.00, 0.00, 0.00, 25196.92, 0.00, 0.00, 0.00, 0.00
191, 0.00, 4419.19, 0.00, 0.00, 0.00, 0.00, 25192.14, 0.00, -0.70, 0.27, -0.62
192, 0.00, 4429.13, 0.00, 0.00, 0.00, 0.00, 25197.86, 0.00, 0.00, 0.00, 0.00
193, 0.00, 4427.57, 0.00, 0.00, 0.00, 0.00, 25184.74, 0.00, 0.00, 0.00, 0.00
194, 0.00, 4428.46, 0.00, 0.00, 0.00, 0.00, 25191.11, 0.00, 0.00, 0.00, 0.00
195, 0.00, 4429.33, 0.00, 0.00, 0.00, 0.00, 25194.33, 0.00, 0.00, 0.00, 0.00
196, 0.00, 4436.44, 0.00, 0.00, 0.00, 0.00, 25187.38, 0.00, 0.00, 0.00, 0.00
197, 0.00, 4441.92, 0.00, 0.00, 0.00, 0.00, 25176.96, 0.00, 0.00, 0.00, 0.00
198, 0.00, 4423.70, 0.00, 0.00, 0.00, 0.00, 25172.31, 0.00, 0.00, 0.00, 0.00
199, 0.00, 4429.18, 0.00, 0.00, 0.00, 0.00, 25176.76, 0.00, 0.00, 0.00, 0.00
200, 0.00, 4440.71, 0.00, 0.00, 0.00, 0.00, 25198.84, 0.00, -0.70, 0.27, -0.62
201, 0.00, 4423.03, 0.00, 0.00, 0.00, 0.00, 25182.23, 0.00, 0.00, 0.00, 0.00
202, 0.00, 4419.19, 0.00, 0.00, 0.00, 0.00, 25168.82, 0.00, 0.00, 0.00, 0.00
203, 0.00, 4428.17, 0.00, 0.00, 0.00, 0.00, 25191.55, 0.00, 0.00, 0.00, 0.00
204, 0.00, 4429.80, 0.00, 0.00, 0.00, 0.00, 25202.26, 0.00, 0.00, 0.00, 0.00
205, 0.00, 4432.80, 0.00, 0.00, 0.00, 0.00, 25206.20, 0.00, 0.00, 0.00, 0.00
206, 0.00, 4418.87, 0.00, 0.00, 0.00, 0.00, 25178.72, 0.00, 0.00, 0.00, 0.00
207, 0.00, 4418.85, 0.00, 0.00, 0.00, 0.00, 25165.45, 0.00, 0.00, 0.00, 0.00
208, 0.00, 4428.42, 0.00, 0.00, 0.00, 0.00, 25200.65, 0.00, 0.00, 0.00, 0.00
209, 0.00, 4433.54, 0.00, 0.00, 0.00, 0.00, 25205.08, 0.00, 0.00, 0.00, 0.00
210, 0.00, 4438.25, 0.00, 0.00, 0.00, 0.00, 25213.91, 0.00, -0.70, 0.27, -0.62
211, 0.00, 4439.35, 0.00, 0.00, 0.00, 0.00, 25211.69, 0.00, 0.00, 0.00, 0.00
212, 0.00, 4432.22, 0.00, 0.00, 0.00, 0.00, 25223.70, 0.00, 0.00, 0.00, 0.00
213, 0.00, 4434.23, 0.00, 0.00, 0.00, 0.00, 25223.14, 0.00, 0.00, 0.00, 0.00
214, 0.00, 4429.40, 0.00, 0.00, 0.00, 0.00, 25224.79, 0.00, 0.00, 0.00, 0.00
215, 0.00, 4428.69, 0.00, 0.00, 0.00, 0.00, 25210.11, 0.00, 0.00, 0.00, 0.00
216, 0.00, 4425.71, 0.00, 0.00, 0.00, 0.00, 25205.68, 0.00, 0.00, 0.00, 0.00
217, 0.00, 4423.34, 0.00, 0.00, 0.00, 0.00, 25209.08, 0.00, 0.00, 0.00, 0.00
218, 0.00, 4418.69, 0.00, 0.00, 0.00, 0.00, 25198.60, 0.00, 0.00, 0.00, 0.00
219, 0.00, 4416.21, 0.00, 0.00, 0.00, 0.00, 25193.52, 0.00, 0.00, 0.00, 0.00
220, 0.00, 4417.00, 0.00, 0.00, 0.00, 0.00, 25189.30, 0.00, -0.70, 0.27, -0.62
221, 0.00, 4429.87, 0.00, 0.00, 0.00, 0.00, 25182.93, 0.00, 0.00, 0.00, 0.00
222, 0.00, 4431.41, 0.00, 0.00, 0.00, 0.00, 25212.03, 0.00, 0.00, 0.00, 0.00
223, 0.00, 4415.65, 0.00, 0.00, 0.00, 0.00, 25226.60, 0.00, 0.00, 0.00, 0.00
224, 0.00, 4411.03, 0.00, 0.00, 0.00, 0.00, 25215.67, 0.00, 0.00, 0.00, 0.00
225, 0.00, 4420.44, 0.00, 0.00, 0.00, 0.00, 25213.39, 0.00, 0.00, 0.00, 0.00
226, 0.00, 4423.99, 0.00, 0.00, 0.00, 0.00, 25203.89, 0.00, 0.00, 0.00, 0.00
227, 0.00, 4431.55, 0.00, 0.00, 0.00, 0.00, 25200.74, 0.00, 0.00, 0.00, 0.00
228, 0.00, 4436.24, 0.00, 0.00, 0.00, 0.00, 25205.03, 0.00, 0.00, 0.00, 0.00
229, 0.00, 4435.66, 0.00, 0.00, 0.00, 0.00, 25199.20, 0.00, -0.70, 0.27, -0.62
230, 0.00, 4418.72, 0.00, 0.00, 0.00, 0.00, 25174.50, 0.00, 0.00, 0.00, 0.00
231, 0.00, 4433.02, 0.00, 0.00, 0.00, 0.00, 25190.35, 0.00, 0.00, 0.00, 0.00
232, 0.00, 4453.34, 0.00, 0.00, 0.00, 0.00, 25202.22, 0.00, 0.00, 0.00, 0.00
233, 0.00, 4453.58, 0.00, 0.00, 0.00, 0.00, 25182.55, 0.00, 0.00, 0.00, 0.00
234, 0.00, 4428.64, 0.00, 0.00, 0.00, 0.00, 25215.36, 0.00, 0.00, 0.00, 0.00
235, 0.00, 4416.91, 0.00, 0.00, 0.00, 0.00, 25208.41, 0.00, 0.00, 0.00, 0.00
236, 0.00, 4429.78, 0.00, 0.00, 0.00, 0.00, 25193.34, 0.00, 0.00, 0.00, 0.00
237, 0.00, 4443.82, 0.00, 0.00, 0.00, 0.00, 25209.50, 0.00, 0.00, 0.00, 0.00
238, 0.00, 4443.35, 0.00, 0.00, 0.00, 0.00, 25210.40, 0.00, 0.00, 0.00, 0.00
239, 0.00, 4433.56, 0.00, 0.00, 0.00, 0.00, 25191.06, 0.00, -0.71, 0.27, -0.62
240, 0.00, 4418.87, 0.00, 0.00, 0.00, 0.00, 25187.22, 0.00, 0.00, 0.00, 0.00
241, 0.00, 4414.49, 0.00, 0.00, 0.00, 0.00, 25190.95, 0.00, 0.00, 0.00, 0.00
242, 0.00, 4425.00, 0.00, 0.00, 0.00, 0.00, 25194.86, 0.00, 0.00, 0.00, 0.00
243, 0.00, 4424.51, 0.00, 0.00, 0.00, 0.00, 25192.61, 0.00, 0.00, 0.00, 0.00
244, 0.00, 4434.45, 0.00, 0.00, 0.00, 0.00, 25179.17, 0.00, 0.00, 0.00, 0.00
245, 0.00, 4441.58, 0.00, 0.00, 0.00, 0.00, 25175.15, 0.00, 0.00, 0.00, 0.00
246, 0.00, 4446.21, 0.00, 0.00, 0.00, 0.00, 25195.91, 0.00, 0.00, 0.00, 0.00
247, 0.00, 4451.82, 0.00, 0.00, 0.00, 0.00, 25200.09, 0.00, 0.00, 0.00, 0.00
248, 0.00, 4436.69, 0.00, 0.00, 0.00, 0.00, 25195.49, 0.00, 0.00, 0.00, 0.00
249, 0.00, 4445.52, 0.00, 0.00, 0.00, 0.00, 25190.37, 0.00, -0.70, 0.27, -0.62
250, 0.00, 4448.29, 0.00, 0.00, 0.00, 0.00, 25185.07, 0.00, 0.00, 0.00, 0.00
251, 0.00, 4449.83, 0.00, 0.00, 0.00, 0.00, 25177.96, 0.00, 0.00, 0.00, 0.00
252, 0.00, 4452.20, 0.00, 0.00, 0.00, 0.00, 25155.05, 0.00, 0.00, 0.00, 0.00
253, 0.00, 4446.30, 0.00, 0.00, 0.00, 0.00, 25147.01, 0.00, 0.00, 0.00, 0.00
254, 0.00, 4449.25, 0.00, 0.00, 0.00, 0.00, 25185.32, 0.00, 0.00, 0.00, 0.00
255, 0.00, 4440.06, 0.00, 0.00, 0.00, 0.00, 25175.39, 0.00, 0.00, 0.00, 0.00
0, 0.00, 4441.94, 0.00, 0.00, 0.00, 0.00, 25164.40, 0.00, 0.00, 0.00, 0.00
1, 0.00, 4455.84, 0.00, 0.00, 0.00, 0.00, 25179.44, 0.00, 0.00, 0.00, 0.00
2, 0.00, 4453.16, 0.00, 0.00, 0.00, 0.00, 25196.99, 0.00, -0.70, 0.27, -0.62
3, 0.00, 4449.36, 0.00, 0.00, 0.00, 0.00, 25190.28, 0.00, 0.00, 0.00, 0.00
4, 0.00, 4450.63, 0.00, 0.00, 0.00, 0.00, 25186.48, 0.00, 0.00, 0.00, 0.00
5, 0.00, 4444.91, 0.00, 0.00, 0.00, 0.00, 25180.76, 0.00, 0.00, 0.00, 0.00
6, 0.00, 4444.85, 0.00, 0.00, 0.00, 0.00, 25175.44, 0.00, 0.00, 0.00, 0.00
7, 0.00, 4448.27, 0.00, 0.00, 0.00, 0.00, 25172.73, 0.00, 0.00, 0.00, 0.00
8, 0.00, 4451.22, 0.00, 0.00, 0.00, 0.00, 25177.18, 0.00, 0.00, 0.00, 0.00
9, 0.00, 4458.48, 0.00, 0.00, 0.00, 0.00, 25186.32, 0.00, 0.00, 0.00, 0.00
10, 0.00, 4457.07, 0.00, 0.00, 0.00, 0.00, 25177.32, 0.00, 0.00, 0.00, 0.00
11, 0.00, 4466.35, 0.00, 0.00, 0.00, 0.00, 25180.60, 0.00, 0.00, 0.00, 0.00
12, 0.00, 4456.00, 0.00, 0.00, 0.00, 0.00, 25168.82, 0.00, -0.70, 0.26, -0.63
13, 0.00, 4460.83, 0.00, 0.00, 0.00, 0.00, 25160.20, 0.00, 0.00, 0.00, 0.00
14, 0.00, 4467.58, 0.00, 0.00, 0.00, 0.00, 25177.88, 0.00, 0.00, 0.00, 0.00
15, 0.00, 4476.74, 0.00, 0.00, 0.00, 0.00, 25188.13, 0.00, 0.00, 0.00, 0.00
16, 0.00, 4475.44, 0.00, 0.00, 0.00, 0.00, 25185.30, 0.00, 0.00, 0.00, 0.00
17, 0.00, 4459.64, 0.00, 0.00, 0.00, 0.00, 25165.13, 0.00, 0.00, 0.00, 0.00
18, 0.00, 4450.48, 0.00, 0.00, 0.00, 0.00, 25164.06, 0.00, 0.00, 0.00, 0.00
19, 0.00, 4464.22, 0.00, 0.00, 0.00, 0.00, 25163.06, 0.00, 0.00, 0.00, 0.00
20, 0.00, 4468.18, 0.00, 0.00, 0.00, 0.00, 25157.98, 0.00, 0.00, 0.00, 0.00
21, 0.00, 4467.35, 0.00, 0.00, 0.00, 0.00, 25178.43, 0.00, 0.00, 0.00, 0.00
22, 0.00, 4459.35, 0.00, 0.00, 0.00, 0.00, 25191.91, 0.00, -0.71, 0.26, -0.63
23, 0.00, 4458.01, 0.00, 0.00, 0.00, 0.00, 25200.23, 0.00, 0.00, 0.00, 0.00
24, 0.00, 4465.19, 0.00, 0.00, 0.00, 0.00, 25204.45, 0.00, 0.00, 0.00, 0.00
25, 0.00, 4459.84, 0.00, 0.00, 0.00, 0.00, 25197.52, 0.00, 0.00, 0.00, 0.00
26, 0.00, 4460.31, 0.00, 0.00, 0.00, 0.00, 25179.33, 0.00, 0.00, 0.00, 0.00
27, 0.00, 4465.61, 0.00, 0.00, 0.00, 0.00, 25177.38, 0.00, 0.00, 0.00, 0.00
28, 0.00, 4465.52, 0.00, 0.00, 0.00, 0.00, 25193.90, 0.00, 0.00, 0.00, 0.00
29, 0.00, 4452.31, 0.00, 0.00, 0.00, 0.00, 25190.42, 0.00, 0.00, 0.00, 0.00
30, 0.00, 4462.21, 0.00, 0.00, 0.00, 0.00, 25183.96, 0.00, 0.00, 0.00, 0.00
31, 0.00, 4472.72, 0.00, 0.00, 0.00, 0.00, 25177.29, 0.00, -0.70, 0.26, -0.63
32, 0.00, 4475.02, 0.00, 0.00, 0.00, 0.00, 25207.45, 0.00, 0.00, 0.00, 0.00
33, 0.00, 4470.30, 0.00, 0.00, 0.00, 0.00, 25207.20, 0.00, 0.00, 0.00, 0.00
34, 0.00, 4464.47, 0.00, 0.00, 0.00, 0.00, 25190.88, 0.00, 0.00, 0.00, 0.00
35, 0.00, 4464.16, 0.00, 0.00, 0.00, 0.00, 25182.14, 0.00, 0.00, 0.00, 0.00
36, 0.00, 4467.87, 0.00, 0.00, 0.00, 0.00, 25187.60, 0.00, 0.00, 0.00, 0.00
37, 0.00, 4458.41, 0.00, 0.00, 0.00, 0.00, 25195.73, 0.00, 0.00, 0.00, 0.00
38, 0.00, 4456.63, 0.00, 0.00, 0.00, 0.00, 25182.66, 0.00, 0.00, 0.00, 0.00
39, 0.00, 4456.31, 0.00, 0.00, 0.00, 0.00, 25170.59, 0.00, 0.00, 0.00, 0.00
40, 0.00, 4455.93, 0.00, 0.00, 0.00, 0.00, 25182.86, 0.00, 0.00, 0.00, 0.00
41, 0.00, 4459.20, 0.00, 0.00, 0.00, 0.00, 25185.52, 0.00, -0.70, 0.25, -0.63
42, 0.00, 4456.02, 0.00, 0.00, 0.00, 0.00, 25182.44, 0.00, 0.00, 0.00, 0.00
43, 0.00, 4458.75, 0.00, 0.00, 0.00, 0.00, 25181.14, 0.00, 0.00, 0.00, 0.00
44, 0.00, 4463.00, 0.00, 0.00, 0.00, 0.00, 25196.96, 0.00, 0.00, 0.00, 0.00
45, 0.00, 4467.15, 0.00, 0.00, 0.00, 0.00, 25193.01, 0.00, 0.00, 0.00, 0.00
46, 0.00, 4469.52, 0.00, 0.00, 0.00, 0.00, 25172.00, 0.00, 0.00, 0.00, 0.00
47, 0.00, 4458.03, 0.00, 0.00, 0.00, 0.00, 25181.21, 0.00, 0.00, 0.00, 0.00
48, 0.00, 4459.42, 0.00, 0.00, 0.00, 0.00, 25192.49, 0.00, 0.00, 0.00, 0.00
49, 0.00, 4459.37, 0.00, 0.00, 0.00, 0.00, 25179.98, 0.00, 0.00, 0.00, 0.00
50, 0.00, 4454.90, 0.00, 0.00, 0.00, 0.00, 25151.37, 0.00, 0.00, 0.00, 0.00
51, 0.00, 4471.56, 0.00, 0.00, 0.00, 0.00, 25142.07, 0.00, -0.71, 0.25, -0.63
52, 0.00, 4470.77, 0.00, 0.00, 0.00, 0.00, 25179.13, 0.00, 0.00, 0.00, 0.00
53, 0.00, 4461.03, 0.00, 0.00, 0.00, 0.00, 25199.82, 0.00, 0.00, 0.00, 0.00
54, 0.00, 4454.10, 0.00, 0.00, 0.00, 0.00, 25210.93, 0.00, 0.00, 0.00, 0.00
55, 0.00, 4443.35, 0.00, 0.00, 0.00, 0.00, 25202.13, 0.00, 0.00, 0.00, 0.00
56, 0.00, 4449.65, 0.00, 0.00, 0.00, 0.00, 25191.58, 0.00, 0.00, 0.00, 0.00
57, 0.00, 4459.24, 0.00, 0.00, 0.00, 0.00, 25179.08, 0.00, 0.00, 0.00, 0.00
58, 0.00, 4458.30, 0.00, 0.00, 0.00, 0.00, 25162.61, 0.00, 0.00, 0.00, 0.00
59, 0.00, 4451.55, 0.00, 0.00, 0.00, 0.00, 25168.11, 0.00, 0.00, 0.00, 0.00
60, 0.00, 4461.43, 0.00, 0.00, 0.00, 0.00, 25183.22, 0.00, -0.70, 0.25, -0.63
61, 0.00, 4489.30, 0.00, 0.00, 0.00, 0.00, 25171.55, 0.00, 0.00, 0.00, 0.00
62, 0.00, 4476.03, 0.00, 0.00, 0.00, 0.00, 25157.13, 0.00, 0.00, 0.00, 0.00
63, 0.00, 4454.57, 0.00, 0.00, 0.00, 0.00, 25161.22, 0.00, 0.00, 0.00, 0.00
64, 0.00, 4456.24, 0.00, 0.00, 0.00, 0.00, 25177.59, 0.00, 0.00, 0.00, 0.00
65, 0.00, 4463.11, 0.00, 0.00, 0.00, 0.00, 25186.26, 0.00, 0.00, 0.00, 0.00
66, 0.00, 4464.36, 0.00, 0.00, 0.00, 0.00, 25181.88, 0.00, 0.00, 0.00, 0.00
67, 0.00, 4459.35, 0.00, 0.00, 0.00, 0.00, 25173.70, 0.00, 0.00, 0.00, 0.00
68, 0.00, 4461.81, 0.00, 0.00, 0.00, 0.00, 25167.91, 0.00, 0.00, 0.00, 0.00
69, 0.00, 4451.84, 0.00, 0.00, 0.00, 0.00, 25156.37, 0.00, 0.00, 0.00, 0.00
70, 0.00, 4441.16, 0.00, 0.00, 0.00, 0.00, 25155.77, 0.00, -0.70, 0.25, -0.62
71, 0.00, 4452.53, 0.00, 0.00, 0.00, 0.00, 25165.16, 0.00, 0.00, 0.00, 0.00
72, 0.00, 4456.51, 0.00, 0.00, 0.00, 0.00, 25151.70, 0.00, 0.00, 0.00, 0.00
73, 0.00, 4460.92, 0.00, 0.00, 0.00, 0.00, 25143.05, 0.00, 0.00, 0.00, 0.00
74, 0.00, 4462.59, 0.00, 0.00, 0.00, 0.00, 25163.44, 0.00, 0.00, 0.00, 0.00
75, 0.00, 4468.43, 0.00, 0.00, 0.00, 0.00, 25175.08, 0.00, 0.00, 0.00, 0.00
76, 0.00, 4459.26, 0.00, 0.00, 0.00, 0.00, 25177.12, 0.00, 0.00, 0.00, 0.00
77, 0.00, 4459.37, 0.00, 0.00, 0.00, 0.00, 25181.54, 0.00, 0.00, 0.00, 0.00
78, 0.00, 4463.87, 0.00, 0.00, 0.00, 0.00, 25175.42, 0.00, 0.00, 0.00, 0.00
79, 0.00, 4457.36, 0.00, 0.00, 0.00, 0.00, 25162.68, 0.00, 0.00, 0.00, 0.00
80, 0.00, 4456.51, 0.00, 0.00, 0.00, 0.00, 25164.38, 0.00, -0.70, 0.25, -0.62
81, 0.00, 4454.61, 0.00, 0.00, 0.00, 0.00, 25163.66, 0.00, 0.00, 0.00, 0.00
82, 0.00, 4459.84, 0.00, 0.00, 0.00, 0.00, 25166.10, 0.00, 0.00, 0.00, 0.00
83, 0.00, 4464.07, 0.00, 0.00, 0.00, 0.00, 25157.78, 0.00, 0.00, 0.00, 0.00
84, 0.00, 4464.00, 0.00, 0.00, 0.00, 0.00, 25155.50, 0.00, 0.00, 0.00, 0.00
85, 0.00, 4469.70, 0.00, 0.00, 0.00, 0.00, 25158.09, 0.00, 0.00, 0.00, 0.00
86, 0.00, 4481.30, 0.00, 0.00, 0.00, 0.00, 25163.06, 0.00, 0.00, 0.00, 0.00
87, 0.00, 4470.64, 0.00, 0.00, 0.00, 0.00, 25175.75, 0.00, 0.00, 0.00, 0.00
88, 0.00, 4463.96, 0.00, 0.00, 0.00, 0.00, 25169.36, 0.00, 0.00, 0.00, 0.00
89, 0.00, 4464.90, 0.00, 0.00, 0.00, 0.00, 25157.42, 0.00, -0.70, 0.25, -0.62
90, 0.00, 4464.96, 0.00, 0.00, 0.00, 0.00, 25158.21, 0.00, 0.00, 0.00, 0.00
91, 0.00, 4453.27, 0.00, 0.00, 0.00, 0.00, 25157.54, 0.00, 0.00, 0.00, 0.00
92, 0.00, 4452.94, 0.00, 0.00, 0.00, 0.00, 25170.43, 0.00, 0.00, 0.00, 0.00
93, 0.00, 4458.77, 0.00, 0.00, 0.00, 0.00, 25178.77, 0.00, 0.00, 0.00, 0.00
94, 0.00, 4470.86, 0.00, 0.00, 0.00, 0.00, 25177.32, 0.00, 0.00, 0.00, 0.00
95, 0.00, 4474.95, 0.00, 0.00, 0.00, 0.00, 25166.28, 0.00, 0.00, 0.00, 0.00
96, 0.00, 4459.91, 0.00, 0.00, 0.00, 0.00, 25144.30, 0.00, 0.00, 0.00, 0.00
97, 0.00, 4471.49, 0.00, 0.00, 0.00, 0.00, 25147.01, 0.00, 0.00, 0.00, 0.00
98, 0.00, 4463.96, 0.00, 0.00, 0.00, 0.00, 25172.02, 0.00, 0.00, 0.00, 0.00
99, 0.00, 4454.43, 0.00, 0.00, 0.00, 0.00, 25170.03, 0.00, -0.70, 0.25, -0.63
100, 0.00, 4461.88, 0.00, 0.00, 0.00, 0.00, 25161.54, 0.00, 0.00, 0.00, 0.00
101, 0.00, 4461.39, 0.00, 0.00, 0.00, 0.00, 25155.50, 0.00, 0.00, 0.00, 0.00
102, 0.00, 4460.60, 0.00, 0.00, 0.00, 0.00, 25153.29, 0.00, 0.00, 0.00, 0.00
103, 0.00, 4457.63, 0.00, 0.00, 0.00, 0.00, 25149.24, 0.00, 0.00, 0.00, 0.00
104, 0.00, 4466.30, 0.00, 0.00, 0.00, 0.00, 25158.79, 0.00, 0.00, 0.00, 0.00
105, 0.00, 4464.60, 0.00, 0.00, 0.00, 0.00, 25150.65, 0.00, 0.00, 0.00, 0.00
106, 0.00, 4455.31, 0.00, 0.00, 0.00, 0.00, 25148.71, 0.00, 0.00, 0.00, 0.00
107, 0.00, 4471.20, 0.00, 0.00, 0.00, 0.00, 25165.49, 0.00, 0.00, 0.00, 0.00
108, 0.00, 4470.53, 0.00, 0.00, 0.00, 0.00, 25159.10, 0.00, 0.00, 0.00, 0.00
109, 0.00, 4471.49, 0.00, 0.00, 0.00, 0.00, 25150.96, 0.00, -0.70, 0.25, -0.63
110, 0.00, 4474.80, 0.00, 0.00, 0.00, 0.00, 25153.74, 0.00, 0.00, 0.00, 0.00
111, 0.00, 4463.04, 0.00, 0.00, 0.00, 0.00, 25156.69, 0.00, 0.00, 0.00, 0.00
112, 0.00, 4457.30, 0.00, 0.00, 0.00, 0.00, 25158.21, 0.00, 0.00, 0.00, 0.00
113, 0.00, 4458.32, 0.00, 0.00, 0.00, 0.00, 25155.86, 0.00, 0.00, 0.00, 0.00
114, 0.00, 4469.61, 0.00, 0.00, 0.00, 0.00, 25160.93, 0.00, 0.00, 0.00, 0.00
115, 0.00, 4476.92, 0.00, 0.00, 0.00, 0.00, 25156.44, 0.00, 0.00, 0.00, 0.00
116, 0.00, 4477.41, 0.00, 0.00, 0.00, 0.00, 25152.82, 0.00, 0.00, 0.00, 0.00
117, 0.00, 4464.40, 0.00, 0.00, 0.00, 0.00, 25155.75, 0.00, 0.00, 0.00, 0.00
118, 0.00, 4457.50, 0.00, 0.00, 0.00, 0.00, 25151.39, 0.00, -0.71, 0.25, -0.64
119, 0.00, 4452.29, 0.00, 0.00, 0.00, 0.00, 25146.96, 0.00, 0.00, 0.00, 0.00
120, 0.00, 4452.96, 0.00, 0.00, 0.00, 0.00, 25147.28, 0.00, 0.00, 0.00, 0.00
121, 0.00, 4458.03, 0.00, 0.00, 0.00, 0.00, 25139.56, 0.00, 0.00, 0.00, 0.00
122, 0.00, 4453.29, 0.00, 0.00, 0.00, 0.00, 25152.35, 0.00, 0.00, 0.00, 0.00
123, 0.00, 4449.96, 0.00, 0.00, 0.00, 0.00, 25173.49, 0.00, 0.00, 0.00, 0.00
124, 0.00, 4448.33, 0.00, 0.00, 0.00, 0.00, 25160.53, 0.00, 0.00, 0.00, 0.00
125, 0.00, 4451.42, 0.00, 0.00, 0.00, 0.00, 25149.09, 0.00, 0.00, 0.00, 0.00
126, 0.00, 4454.46, 0.00, 0.00, 0.00, 0.00, 25149.13, 0.00, 0.00, 0.00, 0.00
127, 0.00, 4457.83, 0.00, 0.00, 0.00, 0.00, 25139.36, 0.00, 0.00, 0.00, 0.00
128, 0.00, 4461.92, 0.00, 0.00, 0.00, 0.00, 25142.56, 0.00, -0.70, 0.25, -0.63
129, 0.00, 4459.60, 0.00, 0.00, 0.00, 0.00, 25151.84, 0.00, 0.00, 0.00, 0.00
130, 0.00, 4456.02, 0.00, 0.00, 0.00, 0.00, 25150.81, 0.00, 0.00, 0.00, 0.00
131, 0.00, 4450.93, 0.00, 0.00, 0.00, 0.00, 25143.10, 0.00, 0.00, 0.00, 0.00
132, 0.00, 4456.63, 0.00, 0.00, 0.00, 0.00, 25138.34, 0.00, 0.00, 0.00, 0.00
133, 0.00, 4457.38, 0.00, 0.00, 0.00, 0.00, 25139.70, 0.00, 0.00, 0.00, 0.00
134, 0.00, 4457.38, 0.00, 0.00, 0.00, 0.00, 25139.65, 0.00, 0.00, 0.00, 0.00
135, 0.00, 4458.57, 0.00, 0.00, 0.00, 0.00, 25138.45, 0.00, 0.00, 0.00, 0.00
136, 0.00, 4457.92, 0.00, 0.00, 0.00, 0.00, 25158.41, 0.00, 0.00, 0.00, 0.00
137, 0.00, 4448.24, 0.00, 0.00, 0.00, 0.00, 25165.54, 0.00, 0.00, 0.00, 0.00
138, 0.00, 4445.74, 0.00, 0.00, 0.00, 0.00, 25176.15, 0.00, -0.70, 0.25, -0.64
139, 0.00, 4451.08, 0.00, 0.00, 0.00, 0.00, 25168.11, 0.00, 0.00, 0.00, 0.00
140, 0.00, 4469.57, 0.00, 0.00, 0.00, 0.00, 25169.76, 0.00, 0.00, 0.00, 0.00
141, 0.00, 4460.38, 0.00, 0.00, 0.00, 0.00, 25164.93, 0.00, 0.00, 0.00, 0.00
142, 0.00, 4447.73, 0.00, 0.00, 0.00, 0.00, 25155.79, 0.00, 0.00, 0.00, 0.00
143, 0.00, 4449.36, 0.00, 0.00, 0.00, 0.00, 25157.49, 0.00, 0.00, 0.00, 0.00
144, 0.00, 4459.69, 0.00, 0.00, 0.00, 0.00, 25163.93, 0.00, 0.00, 0.00, 0.00
145, 0.00, 4457.59, 0.00, 0.00, 0.00, 0.00, 25160.62, 0.00, 0.00, 0.00, 0.00
146, 0.00, 4449.03, 0.00, 0.00, 0.00, 0.00, 25149.58, 0.00, 0.00, 0.00, 0.00
147, 0.00, 4447.80, 0.00, 0.00, 0.00, 0.00, 25147.70, 0.00, -0.70, 0.25, -0.64
148, 0.00, 4457.52, 0.00, 0.00, 0.00, 0.00, 25150.65, 0.00, 0.00, 0.00, 0.00
149, 0.00, 4459.64, 0.00, 0.00, 0.00, 0.00, 25156.40, 0.00, 0.00, 0.00, 0.00
150, 0.00, 4457.21, 0.00, 0.00, 0.00, 0.00, 25158.45, 0.00, 0.00, 0.00, 0.00
151, 0.00, 4445.07, 0.00, 0.00, 0.00, 0.00, 25133.44, 0.00, 0.00, 0.00, 0.00
152, 0.00, 4444.67, 0.00, 0.00, 0.00, 0.00, 25142.20, 0.00, 0.00, 0.00, 0.00
153, 0.00, 4446.95, 0.00, 0.00, 0.00, 0.00, 25139.65, 0.00, 0.00, 0.00, 0.00
154, 0.00, 4452.58, 0.00, 0.00, 0.00, 0.00, 25140.04, 0.00, 0.00, 0.00, 0.00
155, 0.00, 4452.27, 0.00, 0.00, 0.00, 0.00, 25150.25, 0.00, 0.00, 0.00, 0.00
156, 0.00, 4452.38, 0.00, 0.00, 0.00, 0.00, 25156.08, 0.00, 0.00, 0.00, 0.00
157, 0.00, 4445.18, 0.00, 0.00, 0.00, 0.00, 25137.02, 0.00, -0.70, 0.24, -0.63
158, 0.00, 4452.56, 0.00, 0.00, 0.00, 0.00, 25138.13, 0.00, 0.00, 0.00, 0.00
159, 0.00, 4481.81, 0.00, 0.00, 0.00, 0.00, 25177.81, 0.00, 0.00, 0.00, 0.00
160, 0.00, 4476.72, 0.00, 0.00, 0.00, 0.00, 25160.08, 0.00, 0.00, 0.00, 0.00
161, 0.00, 4458.46, 0.00, 0.00, 0.00, 0.00, 25149.91, 0.00, 0.00, 0.00, 0.00
162, 0.00, 4442.10, 0.00, 0.00, 0.00, 0.00, 25159.57, 0.00, 0.00, 0.00, 0.00
163, 0.00, 4433.02, 0.00, 0.00, 0.00, 0.00, 25155.97, 0.00, 0.00, 0.00, 0.00
164, 0.00, 4430.70, 0.00, 0.00, 0.00, 0.00, 25156.57, 0.00, 0.00, 0.00, 0.00
165, 0.00, 4420.59, 0.00, 0.00, 0.00, 0.00, 25157.87, 0.00, 0.00, 0.00, 0.00
166, 0.00, 4413.69, 0.00, 0.00, 0.00, 0.00, 25160.15, 0.00, 0.00, 0.00, 0.00
167, 0.00, 4397.64, 0.00, 0.00, 0.00, 0.00, 25166.07, 0.00, -0.70, 0.24, -0.63
168, 0.00, 4388.83, 0.00, 0.00, 0.00, 0.00, 25174.72, 0.00, 0.00, 0.00, 0.00
169, 0.00, 4373.54, 0.00, 0.00, 0.00, 0.00, 25185.12, 0.00, 0.00, 0.00, 0.00
170, 0.00, 4360.67, 0.00, 0.00, 0.00, 0.00, 25181.92, 0.00, 0.00, 0.00, 0.00
171, 0.00, 4349.45, 0.00, 0.00, 0.00, 0.00, 25179.08, 0.00, 0.00, 0.00, 0.00
172, 0.00, 4341.51, 0.00, 0.00, 0.00, 0.00, 25172.73, 0.00, 0.00, 0.00, 0.00
173, 0.00, 4350.07, 0.00, 0.00, 0.00, 0.00, 25160.93, 0.00, 0.00, 0.00, 0.00
174, 0.00, 4355.75, 0.00, 0.00, 0.00, 0.00, 25179.22, 0.00, 0.00, 0.00, 0.00
175, 0.00, 4351.30, 0.00, 0.00, 0.00, 0.00, 25218.18, 0.00, 0.00, 0.00, 0.00
176, 0.00, 4338.56, 0.00, 0.00, 0.00, 0.00, 25211.07, 0.00, -0.70, 0.24, -0.63
177, 0.00, 4337.07, 0.00, 0.00, 0.00, 0.00, 25187.71, 0.00, 0.00, 0.00, 0.00
178, 0.00, 4341.94, 0.00, 0.00, 0.00, 0.00, 25208.92, 0.00, 0.00, 0.00, 0.00
179, 0.00, 4348.46, 0.00, 0.00, 0.00, 0.00, 25231.77, 0.00, 0.00, 0.00, 0.00
180, 0.00, 4357.20, 0.00, 0.00, 0.00, 0.00, 25221.64, 0.00, 0.00, 0.00, 0.00
181, 0.00, 4360.91, 0.00, 0.00, 0.00, 0.00, 25210.89, 0.00, 0.00, 0.00, 0.00
182, 0.00, 4356.33, 0.00, 0.00, 0.00, 0.00, 25212.39, 0.00, 0.00, 0.00, 0.00
183, 0.00, 4362.99, 0.00, 0.00, 0.00, 0.00, 25218.13, 0.00, 0.00, 0.00, 0.00
184, 0.00, 4347.86, 0.00, 0.00, 0.00, 0.00, 25208.36, 0.00, 0.00, 0.00, 0.00
185, 0.00, 4349.22, 0.00, 0.00, 0.00, 0.00, 25209.44, 0.00, 0.00, 0.00, 0.00
186, 0.00, 4365.36, 0.00, 0.00, 0.00, 0.00, 25211.45, 0.00, -0.69, 0.23, -0.64
187, 0.00, 4368.27, 0.00, 0.00, 0.00, 0.00, 25194.62, 0.00, 0.00, 0.00, 0.00
188, 0.00, 4364.74, 0.00, 0.00, 0.00, 0.00, 25202.55, 0.00, 0.00, 0.00, 0.00
189, 0.00, 4364.60, 0.00, 0.00, 0.00, 0.00, 25216.37, 0.00, 0.00, 0.00, 0.00
190, 0.00, 4364.69, 0.00, 0.00, 0.00, 0.00, 25202.24, 0.00, 0.00, 0.00, 0.00
191, 0.00, 4369.10, 0.00, 0.00, 0.00, 0.00, 25212.37, 0.00, 0.00, 0.00, 0.00
192, 0.00, 4374.46, 0.00, 0.00, 0.00, 0.00, 25216.30, 0.00, 0.00, 0.00, 0.00
193, 0.00, 4378.21, 0.00, 0.00, 0.00, 0.00, 25218.44, 0.00, 0.00, 0.00, 0.00
194, 0.00, 4382.10, 0.00, 0.00, 0.00, 0.00, 25204.63, 0.00, 0.00, 0.00, 0.00
195, 0.00, 4378.95, 0.00, 0.00, 0.00, 0.00, 25203.07, 0.00, 0.00, 0.00, 0.00
196, 0.00, 4383.49, 0.00, 0.00, 0.00, 0.00, 25202.46, 0.00, -0.70, 0.24, -0.64
197, 0.00, 4387.33, 0.00, 0.00, 0.00, 0.00, 25202.91, 0.00, 0.00, 0.00, 0.00
198, 0.00, 4384.81, 0.00, 0.00, 0.00, 0.00, 25213.06, 0.00, 0.00, 0.00, 0.00
199, 0.00, 4391.11, 0.00, 0.00, 0.00, 0.00, 25222.80, 0.00, 0.00, 0.00, 0.00
200, 0.00, 4392.27, 0.00, 0.00, 0.00, 0.00, 25221.84, 0.00, 0.00, 0.00, 0.00
201, 0.00, 4393.93, 0.00, 0.00, 0.00, 0.00, 25213.13, 0.00, 0.00, 0.00, 0.00
202, 0.00, 4391.16, 0.00, 0.00, 0.00, 0.00, 25202.62, 0.00, 0.00, 0.00, 0.00
203, 0.00, 4385.37, 0.00, 0.00, 0.00, 0.00, 25202.33, 0.00, 0.00, 0.00, 0.00
204, 0.00, 4375.42, 0.00, 0.00, 0.00, 0.00, 25196.81, 0.00, 0.00, 0.00, 0.00
205, 0.00, 4373.97, 0.00, 0.00, 0.00, 0.00, 25190.66, 0.00, -0.70, 0.24, -0.63
206, 0.00, 4382.46, 0.00, 0.00, 0.00, 0.00, 25211.09, 0.00, 0.00, 0.00, 0.00
207, 0.00, 4391.67, 0.00, 0.00, 0.00, 0.00, 25234.43, 0.00, 0.00, 0.00, 0.00
208, 0.00, 4397.48, 0.00, 0.00, 0.00, 0.00, 25238.40, 0.00, 0.00, 0.00, 0.00
209, 0.00, 4394.98, 0.00, 0.00, 0.00, 0.00, 25233.35, 0.00, 0.00, 0.00, 0.00
210, 0.00, 4394.38, 0.00, 0.00, 0.00, 0.00, 25223.05, 0.00, 0.00, 0.00, 0.00
211, 0.00, 4396.97, 0.00, 0.00, 0.00, 0.00, 25198.66, 0.00, 0.00, 0.00, 0.00
212, 0.00, 4387.11, 0.00, 0.00, 0.00, 0.00, 25193.61, 0.00, 0.00, 0.00, 0.00
213, 0.00, 4374.93, 0.00, 0.00, 0.00, 0.00, 25203.18, 0.00, 0.00, 0.00, 0.00
214, 0.00, 4379.11, 0.00, 0.00, 0.00, 0.00, 25234.27, 0.00, 0.00, 0.00, 0.00
215, 0.00, 4389.50, 0.00, 0.00, 0.00, 0.00, 25240.08, 0.00, -0.70, 0.24, -0.63
216, 0.00, 4388.25, 0.00, 0.00, 0.00, 0.00, 25227.92, 0.00, 0.00, 0.00, 0.00
217, 0.00, 4380.14, 0.00, 0.00, 0.00, 0.00, 25221.13, 0.00, 0.00, 0.00, 0.00
218, 0.00, 4390.91, 0.00, 0.00, 0.00, 0.00, 25221.35, 0.00, 0.00, 0.00, 0.00
219, 0.00, 4392.41, 0.00, 0.00, 0.00, 0.00, 25205.46, 0.00, 0.00, 0.00, 0.00
220, 0.00, 4387.89, 0.00, 0.00, 0.00, 0.00, 25219.32, 0.00, 0.00, 0.00, 0.00
221, 0.00, 4379.15, 0.00, 0.00, 0.00, 0.00, 25221.57, 0.00, 0.00, 0.00, 0.00
222, 0.00, 4382.89, 0.00, 0.00, 0.00, 0.00, 25206.69, 0.00, 0.00, 0.00, 0.00
223, 0.00, 4382.57, 0.00, 0.00, 0.00, 0.00, 25209.28, 0.00, 0.00, 0.00, 0.00
224, 0.00, 4382.46, 0.00, 0.00, 0.00, 0.00, 25209.68, 0.00, -0.70, 0.24, -0.64
225, 0.00, 4401.13, 0.00, 0.00, 0.00, 0.00, 25193.41, 0.00, 0.00, 0.00, 0.00
226, 0.00, 4416.79, 0.00, 0.00, 0.00, 0.00, 25196.65, 0.00, 0.00, 0.00, 0.00
227, 0.00, 4397.86, 0.00, 0.00, 0.00, 0.00, 25218.98, 0.00, 0.00, 0.00, 0.00
228, 0.00, 4369.34, 0.00, 0.00, 0.00, 0.00, 25224.95, 0.00, 0.00, 0.00, 0.00
229, 0.00, 4357.88, 0.00, 0.00, 0.00, 0.00, 25204.63, 0.00, 0.00, 0.00, 0.00
230, 0.00, 4336.91, 0.00, 0.00, 0.00, 0.00, 25209.71, 0.00, 0.00, 0.00, 0.00
231, 0.00, 4307.25, 0.00, 0.00, 0.00, 0.00, 25223.03, 0.00, 0.00, 0.00, 0.00
232, 0.00, 4294.64, 0.00, 0.00, 0.00, 0.00, 25209.68, 0.00, 0.00, 0.00, 0.00
233, 0.00, 4277.74, 0.00, 0.00, 0.00, 0.00, 25194.57, 0.00, 0.00, 0.00, 0.00
234, 0.00, 4251.15, 0.00, 0.00, 0.00, 0.00, 25185.07, 0.00, -0.71, 0.24, -0.64
235, 0.00, 4239.54, 0.00, 0.00, 0.00, 0.00, 25176.33, 0.00, 0.00, 0.00, 0.00
236, 0.00, 4250.90, 0.00, 0.00, 0.00, 0.00, 25180.22, 0.00, 0.00, 0.00, 0.00
237, 0.00, 4252.49, 0.00, 0.00, 0.00, 0.00, 25178.03, 0.00, 0.00, 0.00, 0.00
238, 0.00, 4246.23, 0.00, 0.00, 0.00, 0.00, 25174.30, 0.00, 0.00, 0.00, 0.00
239, 0.00, 4252.98, 0.00, 0.00, 0.00, 0.00, 25168.76, 0.00, 0.00, 0.00, 0.00
240, 0.00, 4261.78, 0.00, 0.00, 0.00, 0.00, 25171.88, 0.00, 0.00, 0.00, 0.00
241, 0.00, 4263.66, 0.00, 0.00, 0.00, 0.00, 25178.99, 0.00, 0.00, 0.00, 0.00
242, 0.00, 4265.41, 0.00, 0.00, 0.00, 0.00, 25165.22, 0.00, 0.00, 0.00, 0.00
243, 0.00, 4265.70, 0.00, 0.00, 0.00, 0.00, 25166.52, 0.00, 0.00, 0.00, 0.00
244, 0.00, 4266.61, 0.00, 0.00, 0.00, 0.00, 25182.68, 0.00, -0.70, 0.24, -0.63
245, 0.00, 4265.99, 0.00, 0.00, 0.00, 0.00, 25200.59, 0.00, 0.00, 0.00, 0.00
246, 0.00, 4270.01, 0.00, 0.00, 0.00, 0.00, 25183.96, 0.00, 0.00, 0.00, 0.00
247, 0.00, 4270.55, 0.00, 0.00, 0.00, 0.00, 25182.14, 0.00, 0.00, 0.00, 0.00
248, 0.00, 4273.16, 0.00, 0.00, 0.00, 0.00, 25184.00, 0.00, 0.00, 0.00, 0.00
249, 0.00, 4265.09, 0.00, 0.00, 0.00, 0.00, 25158.70, 0.00, 0.00, 0.00, 0.00
250, 0.00, 4258.07, 0.00, 0.00, 0.00, 0.00, 25154.72, 0.00, 0.00, 0.00, 0.00
251, 0.00, 4266.61, 0.00, 0.00, 0.00, 0.00, 25178.70, 0.00, 0.00, 0.00, 0.00
252, 0.00, 4283.35, 0.00, 0.00, 0.00, 0.00, 25209.10, 0.00, 0.00, 0.00, 0.00
253, 0.00, 4274.44, 0.00, 0.00, 0.00, 0.00, 25196.63, 0.00, -0.70, 0.24, -0.63
254, 0.00, 4275.87, 0.00, 0.00, 0.00, 0.00, 25188.47, 0.00, 0.00, 0.00, 0.00
255, 0.00, 4281.25, 0.00, 0.00, 0.00, 0.00, 25182.84, 0.00, 0.00, 0.00, 0.00
0, 0.00, 4286.19, 0.00, 0.00, 0.00, 0.00, 25168.38, 0.00, 0.00, 0.00, 0.00
1, 0.00, 4291.53, 0.00, 0.00, 0.00, 0.00, 25173.41, 0.00, 0.00, 0.00, 0.00
2, 0.00, 4291.83, 0.00, 0.00, 0.00, 0.00, 25177.52, 0.00, 0.00, 0.00, 0.00
3, 0.00, 4286.64, 0.00, 0.00, 0.00, 0.00, 25169.14, 0.00, 0.00, 0.00, 0.00
4, 0.00, 4282.28, 0.00, 0.00, 0.00, 0.00, 25157.63, 0.00, 0.00, 0.00, 0.00
5, 0.00, 4289.10, 0.00, 0.00, 0.00, 0.00, 25162.39, 0.00, 0.00, 0.00, 0.00
6, 0.00, 4298.26, 0.00, 0.00, 0.00, 0.00, 25163.57, 0.00, 0.00, 0.00, 0.00
7, 0.00, 4292.41, 0.00, 0.00, 0.00, 0.00, 25161.51, 0.00, -0.71, 0.23, -0.64
8, 0.00, 4292.16, 0.00, 0.00, 0.00, 0.00, 25162.10, 0.00, 0.00, 0.00, 0.00
9, 0.00, 4288.54, 0.00, 0.00, 0.00, 0.00, 25162.72, 0.00, 0.00, 0.00, 0.00
10, 0.00, 4291.20, 0.00, 0.00, 0.00, 0.00, 25174.39, 0.00, 0.00, 0.00, 0.00
11, 0.00, 4301.06, 0.00, 0.00, 0.00, 0.00, 25176.54, 0.00, 0.00, 0.00, 0.00
12, 0.00, 4296.92, 0.00, 0.00, 0.00, 0.00, 25165.16, 0.00, 0.00, 0.00, 0.00
13, 0.00, 4280.85, 0.00, 0.00, 0.00, 0.00, 25166.61, 0.00, 0.00, 0.00, 0.00
14, 0.00, 4281.30, 0.00, 0.00, 0.00, 0.00, 25172.04, 0.00, 0.00, 0.00, 0.00
15, 0.00, 4283.53, 0.00, 0.00, 0.00, 0.00, 25168.80, 0.00, 0.00, 0.00, 0.00
16, 0.00, 4281.05, 0.00, 0.00, 0.00, 0.00, 25159.26, 0.00, 0.00, 0.00, 0.00
17, 0.00, 4281.97, 0.00, 0.00, 0.00, 0.00, 25153.56, 0.00, -0.71, 0.23, -0.63
18, 0.00, 4286.77, 0.00, 0.00, 0.00, 0.00, 25164.13, 0.00, 0.00, 0.00, 0.00
19, 0.00, 4302.91, 0.00, 0.00, 0.00, 0.00, 25169.31, 0.00, 0.00, 0.00, 0.00
20, 0.00, 4307.92, 0.00, 0.00, 0.00, 0.00, 25168.40, 0.00, 0.00, 0.00, 0.00
21, 0.00, 4289.55, 0.00, 0.00, 0.00, 0.00, 25186.37, 0.00, 0.00, 0.00, 0.00
22, 0.00, 4282.80, 0.00, 0.00, 0.00, 0.00, 25186.44, 0.00, 0.00, 0.00, 0.00
23, 0.00, 4286.57, 0.00, 0.00, 0.00, 0.00, 25186.86, 0.00, 0.00, 0.00, 0.00
24, 0.00, 4277.70, 0.00, 0.00, 0.00, 0.00, 25184.09, 0.00, 0.00, 0.00, 0.00
